#wl	n	k; https://refractiveindex.info/?shelf=main&book=Ag&page=Yang. H. U. Yang. J. D'Archangel. M. L. Sundheimer. E. Tucker. G. D. Boreman. M. B. Raschke. Optical dielectric function of silver. Phys. Rev. B 91. 235137 (2015) (see Supplemental Material for numerical data; data taken from 'Ag_C_corrected.csv')
270	1.364	1.318
270.5	1.36965	1.3141
271	1.3753	1.3102
271.5	1.38095	1.3063
272	1.3866	1.3024
272.5	1.39225	1.2985
273	1.3979	1.2946
273.5	1.40355	1.2907
274	1.4092	1.2868
274.5	1.41485	1.2829
275	1.4205	1.279
275.5	1.42615	1.2751
276	1.4318	1.2712
276.5	1.43745	1.2673
277	1.4431	1.2634
277.5	1.44875	1.2595
278	1.4544	1.2556
278.5	1.46005	1.2517
279	1.4657	1.2478
279.5	1.47135	1.2439
280	1.477	1.24
280.5	1.4797	1.2364
281	1.4824	1.2328
281.5	1.4851	1.2292
282	1.4878	1.2256
282.5	1.4905	1.222
283	1.4932	1.2184
283.5	1.4959	1.2148
284	1.4986	1.2112
284.5	1.5013	1.2076
285	1.504	1.204
285.5	1.5067	1.2004
286	1.5094	1.1968
286.5	1.5121	1.1932
287	1.5148	1.1896
287.5	1.5175	1.186
288	1.5202	1.1824
288.5	1.5229	1.1788
289	1.5256	1.1752
289.5	1.5283	1.1716
290	1.531	1.168
290.5	1.5349	1.15523
291	1.5388	1.14246
291.5	1.5427	1.12969
292	1.5466	1.11692
292.5	1.5505	1.10415
293	1.5544	1.09138
293.5	1.5583	1.07861
294	1.5622	1.06584
294.5	1.5661	1.05307
295	1.57	1.0403
295.5	1.5739	1.02753
296	1.5778	1.01476
296.5	1.5817	1.00199
297	1.5856	0.98922
297.5	1.5895	0.97645
298	1.5934	0.96368
298.5	1.5973	0.95091
299	1.6012	0.93814
299.5	1.6051	0.92537
300	1.609	0.9126
300.5	1.5972	0.89293
301	1.5854	0.87326
301.5	1.5736	0.85359
302	1.5618	0.83392
302.5	1.55	0.81425
303	1.5382	0.79458
303.5	1.5264	0.77491
304	1.5146	0.75524
304.5	1.5028	0.73557
305	1.491	0.7159
305.5	1.4792	0.69623
306	1.4674	0.67656
306.5	1.4556	0.65689
307	1.4438	0.63722
307.5	1.432	0.61755
308	1.4202	0.59788
308.5	1.4084	0.57821
309	1.3966	0.55854
309.5	1.3848	0.53887
310	1.373	0.5192
310.5	1.345305	0.50991
311	1.31761	0.50062
311.5	1.289915	0.49133
312	1.26222	0.48204
312.5	1.234525	0.47275
313	1.20683	0.46346
313.5	1.179135	0.45417
314	1.15144	0.44488
314.5	1.123745	0.43559
315	1.09605	0.4263
315.5	1.068355	0.41701
316	1.04066	0.40772
316.5	1.012965	0.39843
317	0.98527	0.38914
317.5	0.957575	0.37985
318	0.92988	0.37056
318.5	0.902185	0.36127
319	0.87449	0.35198
319.5	0.846795	0.34269
320	0.8191	0.3334
320.5	0.78918	0.350625
321	0.75926	0.36785
321.5	0.72934	0.385075
322	0.69942	0.4023
322.5	0.6695	0.419525
323	0.63958	0.43675
323.5	0.60966	0.453975
324	0.57974	0.4712
324.5	0.54982	0.488425
325	0.5199	0.50565
325.5	0.48998	0.522875
326	0.46006	0.5401
326.5	0.43014	0.557325
327	0.40022	0.57455
327.5	0.3703	0.591775
328	0.34038	0.609
328.5	0.31046	0.626225
329	0.28054	0.64345
329.5	0.25062	0.660675
330	0.2207	0.6779
330.5	0.21521	0.698205
331	0.20972	0.71851
331.5	0.20423	0.738815
332	0.19874	0.75912
332.5	0.19325	0.779425
333	0.18776	0.79973
333.5	0.18227	0.820035
334	0.17678	0.84034
334.5	0.17129	0.860645
335	0.1658	0.88095
335.5	0.16031	0.901255
336	0.15482	0.92156
336.5	0.14933	0.941865
337	0.14384	0.96217
337.5	0.13835	0.982475
338	0.13286	1.00278
338.5	0.12737	1.023085
339	0.12188	1.04339
339.5	0.11639	1.063695
340	0.1109	1.084
340.5	0.1095765	1.09685
341	0.108253	1.1097
341.5	0.1069295	1.12255
342	0.105606	1.1354
342.5	0.1042825	1.14825
343	0.102959	1.1611
343.5	0.1016355	1.17395
344	0.100312	1.1868
344.5	0.0989885	1.19965
345	0.097665	1.2125
345.5	0.0963415	1.22535
346	0.095018	1.2382
346.5	0.0936945	1.25105
347	0.092371	1.2639
347.5	0.0910475	1.27675
348	0.089724	1.2896
348.5	0.0884005	1.30245
349	0.087077	1.3153
349.5	0.0857535	1.32815
350	0.08443	1.341
350.5	0.083878	1.35075
351	0.083326	1.3605
351.5	0.082774	1.37025
352	0.082222	1.38
352.5	0.08167	1.38975
353	0.081118	1.3995
353.5	0.080566	1.40925
354	0.080014	1.419
354.5	0.079462	1.42875
355	0.07891	1.4385
355.5	0.078358	1.44825
356	0.077806	1.458
356.5	0.077254	1.46775
357	0.076702	1.4775
357.5	0.07615	1.48725
358	0.075598	1.497
358.5	0.075046	1.50675
359	0.074494	1.5165
359.5	0.073942	1.52625
360	0.07339	1.536
360.5	0.073080909	1.544232323
361	0.072771818	1.552464646
361.5	0.072462727	1.56069697
362	0.072153636	1.568929293
362.5	0.071844545	1.577161616
363	0.071535455	1.585393939
363.5	0.071226364	1.593626263
364	0.070917273	1.601858586
364.5	0.070608182	1.610090909
365	0.070299091	1.618323232
365.5	0.06999	1.626555556
366	0.069680909	1.634787879
366.5	0.069371818	1.643020202
367	0.069062727	1.651252525
367.5	0.068753636	1.659484848
368	0.068444545	1.667717172
368.5	0.068135455	1.675949495
369	0.067826364	1.684181818
369.5	0.067517273	1.692414141
370	0.0672298	1.70042
370.5	0.0670288	1.70752
371	0.0668278	1.71462
371.5	0.0666268	1.72172
372	0.0664258	1.72882
372.5	0.0662248	1.73592
373	0.0660238	1.74302
373.5	0.0658228	1.75012
374	0.0656218	1.75722
374.5	0.0654208	1.76432
375	0.0652198	1.77142
375.5	0.0650188	1.77852
376	0.0648178	1.78562
376.5	0.0646168	1.79272
377	0.0644158	1.79982
377.5	0.0642148	1.80692
378	0.0640138	1.81402
378.5	0.0638128	1.82112
379	0.0636118	1.82822
379.5	0.0634108	1.83532
380	0.063221	1.8423
380.5	0.063076	1.8488
381	0.062931	1.8553
381.5	0.062786	1.8618
382	0.062641	1.8683
382.5	0.062496	1.8748
383	0.062351	1.8813
383.5	0.062206	1.8878
384	0.062061	1.8943
384.5	0.061916	1.9008
385	0.061771	1.9073
385.5	0.061626	1.9138
386	0.061481	1.9203
386.5	0.061336	1.9268
387	0.061191	1.9333
387.5	0.061046	1.9398
388	0.060901	1.9463
388.5	0.060756	1.9528
389	0.060611	1.9593
389.5	0.060466	1.9658
390	0.0603282	1.97219
390.5	0.0602192	1.97814
391	0.0601102	1.98409
391.5	0.0600012	1.99004
392	0.0598922	1.99599
392.5	0.0597832	2.00194
393	0.0596742	2.00789
393.5	0.0595652	2.01384
394	0.0594562	2.01979
394.5	0.0593472	2.02574
395	0.0592382	2.03169
395.5	0.0591292	2.03764
396	0.0590202	2.04359
396.5	0.0589112	2.04954
397	0.0588022	2.05549
397.5	0.0586932	2.06144
398	0.0585842	2.06739
398.5	0.0584752	2.07334
399	0.0583662	2.07929
399.5	0.0582572	2.08524
400	0.058153	2.09113
400.5	0.058068	2.09678
401	0.057983	2.10243
401.5	0.057898	2.10808
402	0.057813	2.11373
402.5	0.057728	2.11938
403	0.057643	2.12503
403.5	0.057558	2.13068
404	0.057473	2.13633
404.5	0.057388	2.14198
405	0.057303	2.14763
405.5	0.057218	2.15328
406	0.057133	2.15893
406.5	0.057048	2.16458
407	0.056963	2.17023
407.5	0.056878	2.17588
408	0.056793	2.18153
408.5	0.056708	2.18718
409	0.056623	2.19283
409.5	0.056538	2.19848
410	0.0564568	2.20407
410.5	0.0563908	2.20942
411	0.0563248	2.21477
411.5	0.0562588	2.22012
412	0.0561928	2.22547
412.5	0.0561268	2.23082
413	0.0560608	2.23617
413.5	0.0559948	2.24152
414	0.0559288	2.24687
414.5	0.0558628	2.25222
415	0.0557968	2.25757
415.5	0.0557308	2.26292
416	0.0556648	2.26827
416.5	0.0555988	2.27362
417	0.0555328	2.27897
417.5	0.0554668	2.28432
418	0.0554008	2.28967
418.5	0.0553348	2.29502
419	0.0552688	2.30037
419.5	0.0552028	2.30572
420	0.0551396	2.31103
420.5	0.0550876	2.31618
421	0.0550356	2.32133
421.5	0.0549836	2.32648
422	0.0549316	2.33163
422.5	0.0548796	2.33678
423	0.0548276	2.34193
423.5	0.0547756	2.34708
424	0.0547236	2.35223
424.5	0.0546716	2.35738
425	0.0546196	2.36253
425.5	0.0545676	2.36768
426	0.0545156	2.37283
426.5	0.0544636	2.37798
427	0.0544116	2.38313
427.5	0.0543596	2.38828
428	0.0543076	2.39343
428.5	0.0542556	2.39858
429	0.0542036	2.40373
429.5	0.0541516	2.40888
430	0.0541021	2.414
430.5	0.0540626	2.419
431	0.0540231	2.424
431.5	0.0539836	2.429
432	0.0539441	2.434
432.5	0.0539046	2.439
433	0.0538651	2.444
433.5	0.0538256	2.449
434	0.0537861	2.454
434.5	0.0537466	2.459
435	0.0537071	2.464
435.5	0.0536676	2.469
436	0.0536281	2.474
436.5	0.0535886	2.479
437	0.0535491	2.484
437.5	0.0535096	2.489
438	0.0534701	2.494
438.5	0.0534306	2.499
439	0.0533911	2.504
439.5	0.0533516	2.509
440	0.0533139	2.51396
440.5	0.0532834	2.51876
441	0.0532529	2.52356
441.5	0.0532224	2.52836
442	0.0531919	2.53316
442.5	0.0531614	2.53796
443	0.0531309	2.54276
443.5	0.0531004	2.54756
444	0.0530699	2.55236
444.5	0.0530394	2.55716
445	0.0530089	2.56196
445.5	0.0529784	2.56676
446	0.0529479	2.57156
446.5	0.0529174	2.57636
447	0.0528869	2.58116
447.5	0.0528564	2.58596
448	0.0528259	2.59076
448.5	0.0527954	2.59556
449	0.0527649	2.60036
449.5	0.0527344	2.60516
450	0.0527056	2.60994
450.5	0.0526836	2.61464
451	0.0526616	2.61934
451.5	0.0526396	2.62404
452	0.0526176	2.62874
452.5	0.0525956	2.63344
453	0.0525736	2.63814
453.5	0.0525516	2.64284
454	0.0525296	2.64754
454.5	0.0525076	2.65224
455	0.0524856	2.65694
455.5	0.0524636	2.66164
456	0.0524416	2.66634
456.5	0.0524196	2.67104
457	0.0523976	2.67574
457.5	0.0523756	2.68044
458	0.0523536	2.68514
458.5	0.0523316	2.68984
459	0.0523096	2.69454
459.5	0.0522876	2.69924
460	0.0522671	2.70392
460.5	0.0522526	2.70852
461	0.0522381	2.71312
461.5	0.0522236	2.71772
462	0.0522091	2.72232
462.5	0.0521946	2.72692
463	0.0521801	2.73152
463.5	0.0521656	2.73612
464	0.0521511	2.74072
464.5	0.0521366	2.74532
465	0.0521221	2.74992
465.5	0.0521076	2.75452
466	0.0520931	2.75912
466.5	0.0520786	2.76372
467	0.0520641	2.76832
467.5	0.0520496	2.77292
468	0.0520351	2.77752
468.5	0.0520206	2.78212
469	0.0520061	2.78672
469.5	0.0519916	2.79132
470	0.0519783	2.79591
470.5	0.0519698	2.80046
471	0.0519613	2.80501
471.5	0.0519528	2.80956
472	0.0519443	2.81411
472.5	0.0519358	2.81866
473	0.0519273	2.82321
473.5	0.0519188	2.82776
474	0.0519103	2.83231
474.5	0.0519018	2.83686
475	0.0518933	2.84141
475.5	0.0518848	2.84596
476	0.0518763	2.85051
476.5	0.0518678	2.85506
477	0.0518593	2.85961
477.5	0.0518508	2.86416
478	0.0518423	2.86871
478.5	0.0518338	2.87326
479	0.0518253	2.87781
479.5	0.0518168	2.88236
480	0.0518094	2.88688
480.5	0.0518064	2.89128
481	0.0518034	2.89568
481.5	0.0518004	2.90008
482	0.0517974	2.90448
482.5	0.0517944	2.90888
483	0.0517914	2.91328
483.5	0.0517884	2.91768
484	0.0517854	2.92208
484.5	0.0517824	2.92648
485	0.0517794	2.93088
485.5	0.0517764	2.93528
486	0.0517734	2.93968
486.5	0.0517704	2.94408
487	0.0517674	2.94848
487.5	0.0517644	2.95288
488	0.0517614	2.95728
488.5	0.0517584	2.96168
489	0.0517554	2.96608
489.5	0.0517524	2.97048
490	0.0517505	2.97488
490.5	0.051753	2.97928
491	0.0517555	2.98368
491.5	0.051758	2.98808
492	0.0517605	2.99248
492.5	0.051763	2.99688
493	0.0517655	3.00128
493.5	0.051768	3.00568
494	0.0517705	3.01008
494.5	0.051773	3.01448
495	0.0517755	3.01888
495.5	0.051778	3.02328
496	0.0517805	3.02768
496.5	0.051783	3.03208
497	0.0517855	3.03648
497.5	0.051788	3.04088
498	0.0517905	3.04528
498.5	0.051793	3.04968
499	0.0517955	3.05408
499.5	0.051798	3.05848
500	0.0518013	3.06286
500.5	0.0518078	3.06716
501	0.0518143	3.07146
501.5	0.0518208	3.07576
502	0.0518273	3.08006
502.5	0.0518338	3.08436
503	0.0518403	3.08866
503.5	0.0518468	3.09296
504	0.0518533	3.09726
504.5	0.0518598	3.10156
505	0.0518663	3.10586
505.5	0.0518728	3.11016
506	0.0518793	3.11446
506.5	0.0518858	3.11876
507	0.0518923	3.12306
507.5	0.0518988	3.12736
508	0.0519053	3.13166
508.5	0.0519118	3.13596
509	0.0519183	3.14026
509.5	0.0519248	3.14456
510	0.0519322	3.14885
510.5	0.0519432	3.1531
511	0.0519542	3.15735
511.5	0.0519652	3.1616
512	0.0519762	3.16585
512.5	0.0519872	3.1701
513	0.0519982	3.17435
513.5	0.0520092	3.1786
514	0.0520202	3.18285
514.5	0.0520312	3.1871
515	0.0520422	3.19135
515.5	0.0520532	3.1956
516	0.0520642	3.19985
516.5	0.0520752	3.2041
517	0.0520862	3.20835
517.5	0.0520972	3.2126
518	0.0521082	3.21685
518.5	0.0521192	3.2211
519	0.0521302	3.22535
519.5	0.0521412	3.2296
520	0.052153	3.23385
520.5	0.052168	3.2381
521	0.052183	3.24235
521.5	0.052198	3.2466
522	0.052213	3.25085
522.5	0.052228	3.2551
523	0.052243	3.25935
523.5	0.052258	3.2636
524	0.052273	3.26785
524.5	0.052288	3.2721
525	0.052303	3.27635
525.5	0.052318	3.2806
526	0.052333	3.28485
526.5	0.052348	3.2891
527	0.052363	3.29335
527.5	0.052378	3.2976
528	0.052393	3.30185
528.5	0.052408	3.3061
529	0.052423	3.31035
529.5	0.052438	3.3146
530	0.0524537	3.31883
530.5	0.0524722	3.32298
531	0.0524907	3.32713
531.5	0.0525092	3.33128
532	0.0525277	3.33543
532.5	0.0525462	3.33958
533	0.0525647	3.34373
533.5	0.0525832	3.34788
534	0.0526017	3.35203
534.5	0.0526202	3.35618
535	0.0526387	3.36033
535.5	0.0526572	3.36448
536	0.0526757	3.36863
536.5	0.0526942	3.37278
537	0.0527127	3.37693
537.5	0.0527312	3.38108
538	0.0527497	3.38523
538.5	0.0527682	3.38938
539	0.0527867	3.39353
539.5	0.0528052	3.39768
540	0.0528244	3.40183
540.5	0.0528464	3.40598
541	0.0528684	3.41013
541.5	0.0528904	3.41428
542	0.0529124	3.41843
542.5	0.0529344	3.42258
543	0.0529564	3.42673
543.5	0.0529784	3.43088
544	0.0530004	3.43503
544.5	0.0530224	3.43918
545	0.0530444	3.44333
545.5	0.0530664	3.44748
546	0.0530884	3.45163
546.5	0.0531104	3.45578
547	0.0531324	3.45993
547.5	0.0531544	3.46408
548	0.0531764	3.46823
548.5	0.0531984	3.47238
549	0.0532204	3.47653
549.5	0.0532424	3.48068
550	0.053265	3.48482
550.5	0.05329	3.48892
551	0.053315	3.49302
551.5	0.05334	3.49712
552	0.053365	3.50122
552.5	0.05339	3.50532
553	0.053415	3.50942
553.5	0.05344	3.51352
554	0.053465	3.51762
554.5	0.05349	3.52172
555	0.053515	3.52582
555.5	0.05354	3.52992
556	0.053565	3.53402
556.5	0.05359	3.53812
557	0.053615	3.54222
557.5	0.05364	3.54632
558	0.053665	3.55042
558.5	0.05369	3.55452
559	0.053715	3.55862
559.5	0.05374	3.56272
560	0.0537655	3.56682
560.5	0.053793	3.57092
561	0.0538205	3.57502
561.5	0.053848	3.57912
562	0.0538755	3.58322
562.5	0.053903	3.58732
563	0.0539305	3.59142
563.5	0.053958	3.59552
564	0.0539855	3.59962
564.5	0.054013	3.60372
565	0.0540405	3.60782
565.5	0.054068	3.61192
566	0.0540955	3.61602
566.5	0.054123	3.62012
567	0.0541505	3.62422
567.5	0.054178	3.62832
568	0.0542055	3.63242
568.5	0.054233	3.63652
569	0.0542605	3.64062
569.5	0.054288	3.64472
570	0.0543162	3.6488
570.5	0.0543472	3.6528
571	0.0543782	3.6568
571.5	0.0544092	3.6608
572	0.0544402	3.6648
572.5	0.0544712	3.6688
573	0.0545022	3.6728
573.5	0.0545332	3.6768
574	0.0545642	3.6808
574.5	0.0545952	3.6848
575	0.0546262	3.6888
575.5	0.0546572	3.6928
576	0.0546882	3.6968
576.5	0.0547192	3.7008
577	0.0547502	3.7048
577.5	0.0547812	3.7088
578	0.0548122	3.7128
578.5	0.0548432	3.7168
579	0.0548742	3.7208
579.5	0.0549052	3.7248
580	0.0549367	3.72881
580.5	0.0549702	3.73286
581	0.0550037	3.73691
581.5	0.0550372	3.74096
582	0.0550707	3.74501
582.5	0.0551042	3.74906
583	0.0551377	3.75311
583.5	0.0551712	3.75716
584	0.0552047	3.76121
584.5	0.0552382	3.76526
585	0.0552717	3.76931
585.5	0.0553052	3.77336
586	0.0553387	3.77741
586.5	0.0553722	3.78146
587	0.0554057	3.78551
587.5	0.0554392	3.78956
588	0.0554727	3.79361
588.5	0.0555062	3.79766
589	0.0555397	3.80171
589.5	0.0555732	3.80576
590	0.0556072	3.8098
590.5	0.0556432	3.8138
591	0.0556792	3.8178
591.5	0.0557152	3.8218
592	0.0557512	3.8258
592.5	0.0557872	3.8298
593	0.0558232	3.8338
593.5	0.0558592	3.8378
594	0.0558952	3.8418
594.5	0.0559312	3.8458
595	0.0559672	3.8498
595.5	0.0560032	3.8538
596	0.0560392	3.8578
596.5	0.0560752	3.8618
597	0.0561112	3.8658
597.5	0.0561472	3.8698
598	0.0561832	3.8738
598.5	0.0562192	3.8778
599	0.0562552	3.8818
599.5	0.0562912	3.8858
600	0.0563277	3.88979
600.5	0.0563662	3.89374
601	0.0564047	3.89769
601.5	0.0564432	3.90164
602	0.0564817	3.90559
602.5	0.0565202	3.90954
603	0.0565587	3.91349
603.5	0.0565972	3.91744
604	0.0566357	3.92139
604.5	0.0566742	3.92534
605	0.0567127	3.92929
605.5	0.0567512	3.93324
606	0.0567897	3.93719
606.5	0.0568282	3.94114
607	0.0568667	3.94509
607.5	0.0569052	3.94904
608	0.0569437	3.95299
608.5	0.0569822	3.95694
609	0.0570207	3.96089
609.5	0.0570592	3.96484
610	0.0570981	3.9688
610.5	0.0571386	3.9728
611	0.0571791	3.9768
611.5	0.0572196	3.9808
612	0.0572601	3.9848
612.5	0.0573006	3.9888
613	0.0573411	3.9928
613.5	0.0573816	3.9968
614	0.0574221	4.0008
614.5	0.0574626	4.0048
615	0.0575031	4.0088
615.5	0.0575436	4.0128
616	0.0575841	4.0168
616.5	0.0576246	4.0208
617	0.0576651	4.0248
617.5	0.0577056	4.0288
618	0.0577461	4.0328
618.5	0.0577866	4.0368
619	0.0578271	4.0408
619.5	0.0578676	4.0448
620	0.0579086	4.04878
620.5	0.0579516	4.05268
621	0.0579946	4.05658
621.5	0.0580376	4.06048
622	0.0580806	4.06438
622.5	0.0581236	4.06828
623	0.0581666	4.07218
623.5	0.0582096	4.07608
624	0.0582526	4.07998
624.5	0.0582956	4.08388
625	0.0583386	4.08778
625.5	0.0583816	4.09168
626	0.0584246	4.09558
626.5	0.0584676	4.09948
627	0.0585106	4.10338
627.5	0.0585536	4.10728
628	0.0585966	4.11118
628.5	0.0586396	4.11508
629	0.0586826	4.11898
629.5	0.0587256	4.12288
630	0.058769	4.12679
630.5	0.058814	4.13074
631	0.058859	4.13469
631.5	0.058904	4.13864
632	0.058949	4.14259
632.5	0.058994	4.14654
633	0.059039	4.15049
633.5	0.059084	4.15444
634	0.059129	4.15839
634.5	0.059174	4.16234
635	0.059219	4.16629
635.5	0.059264	4.17024
636	0.059309	4.17419
636.5	0.059354	4.17814
637	0.059399	4.18209
637.5	0.059444	4.18604
638	0.059489	4.18999
638.5	0.059534	4.19394
639	0.059579	4.19789
639.5	0.059624	4.20184
640	0.0596695	4.20578
640.5	0.059717	4.20968
641	0.0597645	4.21358
641.5	0.059812	4.21748
642	0.0598595	4.22138
642.5	0.059907	4.22528
643	0.0599545	4.22918
643.5	0.060002	4.23308
644	0.0600495	4.23698
644.5	0.060097	4.24088
645	0.0601445	4.24478
645.5	0.060192	4.24868
646	0.0602395	4.25258
646.5	0.060287	4.25648
647	0.0603345	4.26038
647.5	0.060382	4.26428
648	0.0604295	4.26818
648.5	0.060477	4.27208
649	0.0605245	4.27598
649.5	0.060572	4.27988
650	0.0606198	4.28378
650.5	0.0606688	4.28768
651	0.0607178	4.29158
651.5	0.0607668	4.29548
652	0.0608158	4.29938
652.5	0.0608648	4.30328
653	0.0609138	4.30718
653.5	0.0609628	4.31108
654	0.0610118	4.31498
654.5	0.0610608	4.31888
655	0.0611098	4.32278
655.5	0.0611588	4.32668
656	0.0612078	4.33058
656.5	0.0612568	4.33448
657	0.0613058	4.33838
657.5	0.0613548	4.34228
658	0.0614038	4.34618
658.5	0.0614528	4.35008
659	0.0615018	4.35398
659.5	0.0615508	4.35788
660	0.0616003	4.36177
660.5	0.0616518	4.36562
661	0.0617033	4.36947
661.5	0.0617548	4.37332
662	0.0618063	4.37717
662.5	0.0618578	4.38102
663	0.0619093	4.38487
663.5	0.0619608	4.38872
664	0.0620123	4.39257
664.5	0.0620638	4.39642
665	0.0621153	4.40027
665.5	0.0621668	4.40412
666	0.0622183	4.40797
666.5	0.0622698	4.41182
667	0.0623213	4.41567
667.5	0.0623728	4.41952
668	0.0624243	4.42337
668.5	0.0624758	4.42722
669	0.0625273	4.43107
669.5	0.0625788	4.43492
670	0.0626306	4.43878
670.5	0.0626836	4.44268
671	0.0627366	4.44658
671.5	0.0627896	4.45048
672	0.0628426	4.45438
672.5	0.0628956	4.45828
673	0.0629486	4.46218
673.5	0.0630016	4.46608
674	0.0630546	4.46998
674.5	0.0631076	4.47388
675	0.0631606	4.47778
675.5	0.0632136	4.48168
676	0.0632666	4.48558
676.5	0.0633196	4.48948
677	0.0633726	4.49338
677.5	0.0634256	4.49728
678	0.0634786	4.50118
678.5	0.0635316	4.50508
679	0.0635846	4.50898
679.5	0.0636376	4.51288
680	0.063691	4.51677
680.5	0.063746	4.52062
681	0.063801	4.52447
681.5	0.063856	4.52832
682	0.063911	4.53217
682.5	0.063966	4.53602
683	0.064021	4.53987
683.5	0.064076	4.54372
684	0.064131	4.54757
684.5	0.064186	4.55142
685	0.064241	4.55527
685.5	0.064296	4.55912
686	0.064351	4.56297
686.5	0.064406	4.56682
687	0.064461	4.57067
687.5	0.064516	4.57452
688	0.064571	4.57837
688.5	0.064626	4.58222
689	0.064681	4.58607
689.5	0.064736	4.58992
690	0.0647913	4.59376
690.5	0.0648478	4.59756
691	0.0649043	4.60136
691.5	0.0649608	4.60516
692	0.0650173	4.60896
692.5	0.0650738	4.61276
693	0.0651303	4.61656
693.5	0.0651868	4.62036
694	0.0652433	4.62416
694.5	0.0652998	4.62796
695	0.0653563	4.63176
695.5	0.0654128	4.63556
696	0.0654693	4.63936
696.5	0.0655258	4.64316
697	0.0655823	4.64696
697.5	0.0656388	4.65076
698	0.0656953	4.65456
698.5	0.0657518	4.65836
699	0.0658083	4.66216
699.5	0.0658648	4.66596
700	0.0659217	4.66977
700.5	0.0659802	4.67362
701	0.0660387	4.67747
701.5	0.0660972	4.68132
702	0.0661557	4.68517
702.5	0.0662142	4.68902
703	0.0662727	4.69287
703.5	0.0663312	4.69672
704	0.0663897	4.70057
704.5	0.0664482	4.70442
705	0.0665067	4.70827
705.5	0.0665652	4.71212
706	0.0666237	4.71597
706.5	0.0666822	4.71982
707	0.0667407	4.72367
707.5	0.0667992	4.72752
708	0.0668577	4.73137
708.5	0.0669162	4.73522
709	0.0669747	4.73907
709.5	0.0670332	4.74292
710	0.0670921	4.74677
710.5	0.0671526	4.75062
711	0.0672131	4.75447
711.5	0.0672736	4.75832
712	0.0673341	4.76217
712.5	0.0673946	4.76602
713	0.0674551	4.76987
713.5	0.0675156	4.77372
714	0.0675761	4.77757
714.5	0.0676366	4.78142
715	0.0676971	4.78527
715.5	0.0677576	4.78912
716	0.0678181	4.79297
716.5	0.0678786	4.79682
717	0.0679391	4.80067
717.5	0.0679996	4.80452
718	0.0680601	4.80837
718.5	0.0681206	4.81222
719	0.0681811	4.81607
719.5	0.0682416	4.81992
720	0.0683024	4.82376
720.5	0.0683644	4.82756
721	0.0684264	4.83136
721.5	0.0684884	4.83516
722	0.0685504	4.83896
722.5	0.0686124	4.84276
723	0.0686744	4.84656
723.5	0.0687364	4.85036
724	0.0687984	4.85416
724.5	0.0688604	4.85796
725	0.0689224	4.86176
725.5	0.0689844	4.86556
726	0.0690464	4.86936
726.5	0.0691084	4.87316
727	0.0691704	4.87696
727.5	0.0692324	4.88076
728	0.0692944	4.88456
728.5	0.0693564	4.88836
729	0.0694184	4.89216
729.5	0.0694804	4.89596
730	0.0695427	4.89976
730.5	0.0696062	4.90356
731	0.0696697	4.90736
731.5	0.0697332	4.91116
732	0.0697967	4.91496
732.5	0.0698602	4.91876
733	0.0699237	4.92256
733.5	0.0699872	4.92636
734	0.0700507	4.93016
734.5	0.0701142	4.93396
735	0.0701777	4.93776
735.5	0.0702412	4.94156
736	0.0703047	4.94536
736.5	0.0703682	4.94916
737	0.0704317	4.95296
737.5	0.0704952	4.95676
738	0.0705587	4.96056
738.5	0.0706222	4.96436
739	0.0706857	4.96816
739.5	0.0707492	4.97196
740	0.070813	4.97576
740.5	0.070878	4.97956
741	0.070943	4.98336
741.5	0.071008	4.98716
742	0.071073	4.99096
742.5	0.071138	4.99476
743	0.071203	4.99856
743.5	0.071268	5.00236
744	0.071333	5.00616
744.5	0.071398	5.00996
745	0.071463	5.01376
745.5	0.071528	5.01756
746	0.071593	5.02136
746.5	0.071658	5.02516
747	0.071723	5.02896
747.5	0.071788	5.03276
748	0.071853	5.03656
748.5	0.071918	5.04036
749	0.071983	5.04416
749.5	0.072048	5.04796
750	0.0721134	5.05175
750.5	0.0721804	5.0555
751	0.0722474	5.05925
751.5	0.0723144	5.063
752	0.0723814	5.06675
752.5	0.0724484	5.0705
753	0.0725154	5.07425
753.5	0.0725824	5.078
754	0.0726494	5.08175
754.5	0.0727164	5.0855
755	0.0727834	5.08925
755.5	0.0728504	5.093
756	0.0729174	5.09675
756.5	0.0729844	5.1005
757	0.0730514	5.10425
757.5	0.0731184	5.108
758	0.0731854	5.11175
758.5	0.0732524	5.1155
759	0.0733194	5.11925
759.5	0.0733864	5.123
760	0.0734536	5.12676
760.5	0.0735216	5.13056
761	0.0735896	5.13436
761.5	0.0736576	5.13816
762	0.0737256	5.14196
762.5	0.0737936	5.14576
763	0.0738616	5.14956
763.5	0.0739296	5.15336
764	0.0739976	5.15716
764.5	0.0740656	5.16096
765	0.0741336	5.16476
765.5	0.0742016	5.16856
766	0.0742696	5.17236
766.5	0.0743376	5.17616
767	0.0744056	5.17996
767.5	0.0744736	5.18376
768	0.0745416	5.18756
768.5	0.0746096	5.19136
769	0.0746776	5.19516
769.5	0.0747456	5.19896
770	0.074814	5.20276
770.5	0.074884	5.20656
771	0.074954	5.21036
771.5	0.075024	5.21416
772	0.075094	5.21796
772.5	0.075164	5.22176
773	0.075234	5.22556
773.5	0.075304	5.22936
774	0.075374	5.23316
774.5	0.075444	5.23696
775	0.075514	5.24076
775.5	0.075584	5.24456
776	0.075654	5.24836
776.5	0.075724	5.25216
777	0.075794	5.25596
777.5	0.075864	5.25976
778	0.075934	5.26356
778.5	0.076004	5.26736
779	0.076074	5.27116
779.5	0.076144	5.27496
780	0.0762142	5.27875
780.5	0.0762852	5.2825
781	0.0763562	5.28625
781.5	0.0764272	5.29
782	0.0764982	5.29375
782.5	0.0765692	5.2975
783	0.0766402	5.30125
783.5	0.0767112	5.305
784	0.0767822	5.30875
784.5	0.0768532	5.3125
785	0.0769242	5.31625
785.5	0.0769952	5.32
786	0.0770662	5.32375
786.5	0.0771372	5.3275
787	0.0772082	5.33125
787.5	0.0772792	5.335
788	0.0773502	5.33875
788.5	0.0774212	5.3425
789	0.0774922	5.34625
789.5	0.0775632	5.35
790	0.0776346	5.35375
790.5	0.0777076	5.3575
791	0.0777806	5.36125
791.5	0.0778536	5.365
792	0.0779266	5.36875
792.5	0.0779996	5.3725
793	0.0780726	5.37625
793.5	0.0781456	5.38
794	0.0782186	5.38375
794.5	0.0782916	5.3875
795	0.0783646	5.39125
795.5	0.0784376	5.395
796	0.0785106	5.39875
796.5	0.0785836	5.4025
797	0.0786566	5.40625
797.5	0.0787296	5.41
798	0.0788026	5.41375
798.5	0.0788756	5.4175
799	0.0789486	5.42125
799.5	0.0790216	5.425
800	0.0790949	5.42875
800.5	0.0791694	5.4325
801	0.0792439	5.43625
801.5	0.0793184	5.44
802	0.0793929	5.44375
802.5	0.0794674	5.4475
803	0.0795419	5.45125
803.5	0.0796164	5.455
804	0.0796909	5.45875
804.5	0.0797654	5.4625
805	0.0798399	5.46625
805.5	0.0799144	5.47
806	0.0799889	5.47375
806.5	0.0800634	5.4775
807	0.0801379	5.48125
807.5	0.0802124	5.485
808	0.0802869	5.48875
808.5	0.0803614	5.4925
809	0.0804359	5.49625
809.5	0.0805104	5.5
810	0.0805851	5.50375
810.5	0.0806606	5.5075
811	0.0807361	5.51125
811.5	0.0808116	5.515
812	0.0808871	5.51875
812.5	0.0809626	5.5225
813	0.0810381	5.52625
813.5	0.0811136	5.53
814	0.0811891	5.53375
814.5	0.0812646	5.5375
815	0.0813401	5.54125
815.5	0.0814156	5.545
816	0.0814911	5.54875
816.5	0.0815666	5.5525
817	0.0816421	5.55625
817.5	0.0817176	5.56
818	0.0817931	5.56375
818.5	0.0818686	5.5675
819	0.0819441	5.57125
819.5	0.0820196	5.575
820	0.0820954	5.57875
820.5	0.0821724	5.5825
821	0.0822494	5.58625
821.5	0.0823264	5.59
822	0.0824034	5.59375
822.5	0.0824804	5.5975
823	0.0825574	5.60125
823.5	0.0826344	5.605
824	0.0827114	5.60875
824.5	0.0827884	5.6125
825	0.0828654	5.61625
825.5	0.0829424	5.62
826	0.0830194	5.62375
826.5	0.0830964	5.6275
827	0.0831734	5.63125
827.5	0.0832504	5.635
828	0.0833274	5.63875
828.5	0.0834044	5.6425
829	0.0834814	5.64625
829.5	0.0835584	5.65
830	0.0836357	5.65375
830.5	0.0837142	5.6575
831	0.0837927	5.66125
831.5	0.0838712	5.665
832	0.0839497	5.66875
832.5	0.0840282	5.6725
833	0.0841067	5.67625
833.5	0.0841852	5.68
834	0.0842637	5.68375
834.5	0.0843422	5.6875
835	0.0844207	5.69125
835.5	0.0844992	5.695
836	0.0845777	5.69875
836.5	0.0846562	5.7025
837	0.0847347	5.70625
837.5	0.0848132	5.71
838	0.0848917	5.71375
838.5	0.0849702	5.7175
839	0.0850487	5.72125
839.5	0.0851272	5.725
840	0.085206	5.72874
840.5	0.085286	5.73244
841	0.085366	5.73614
841.5	0.085446	5.73984
842	0.085526	5.74354
842.5	0.085606	5.74724
843	0.085686	5.75094
843.5	0.085766	5.75464
844	0.085846	5.75834
844.5	0.085926	5.76204
845	0.086006	5.76574
845.5	0.086086	5.76944
846	0.086166	5.77314
846.5	0.086246	5.77684
847	0.086326	5.78054
847.5	0.086406	5.78424
848	0.086486	5.78794
848.5	0.086566	5.79164
849	0.086646	5.79534
849.5	0.086726	5.79904
850	0.0868062	5.80275
850.5	0.0868872	5.8065
851	0.0869682	5.81025
851.5	0.0870492	5.814
852	0.0871302	5.81775
852.5	0.0872112	5.8215
853	0.0872922	5.82525
853.5	0.0873732	5.829
854	0.0874542	5.83275
854.5	0.0875352	5.8365
855	0.0876162	5.84025
855.5	0.0876972	5.844
856	0.0877782	5.84775
856.5	0.0878592	5.8515
857	0.0879402	5.85525
857.5	0.0880212	5.859
858	0.0881022	5.86275
858.5	0.0881832	5.8665
859	0.0882642	5.87025
859.5	0.0883452	5.874
860	0.0884266	5.87774
860.5	0.0885096	5.88144
861	0.0885926	5.88514
861.5	0.0886756	5.88884
862	0.0887586	5.89254
862.5	0.0888416	5.89624
863	0.0889246	5.89994
863.5	0.0890076	5.90364
864	0.0890906	5.90734
864.5	0.0891736	5.91104
865	0.0892566	5.91474
865.5	0.0893396	5.91844
866	0.0894226	5.92214
866.5	0.0895056	5.92584
867	0.0895886	5.92954
867.5	0.0896716	5.93324
868	0.0897546	5.93694
868.5	0.0898376	5.94064
869	0.0899206	5.94434
869.5	0.0900036	5.94804
870	0.0900867	5.95175
870.5	0.0901702	5.9555
871	0.0902537	5.95925
871.5	0.0903372	5.963
872	0.0904207	5.96675
872.5	0.0905042	5.9705
873	0.0905877	5.97425
873.5	0.0906712	5.978
874	0.0907547	5.98175
874.5	0.0908382	5.9855
875	0.0909217	5.98925
875.5	0.0910052	5.993
876	0.0910887	5.99675
876.5	0.0911722	6.0005
877	0.0912557	6.00425
877.5	0.0913392	6.008
878	0.0914227	6.01175
878.5	0.0915062	6.0155
879	0.0915897	6.01925
879.5	0.0916732	6.023
880	0.0917571	6.02674
880.5	0.0918426	6.03044
881	0.0919281	6.03414
881.5	0.0920136	6.03784
882	0.0920991	6.04154
882.5	0.0921846	6.04524
883	0.0922701	6.04894
883.5	0.0923556	6.05264
884	0.0924411	6.05634
884.5	0.0925266	6.06004
885	0.0926121	6.06374
885.5	0.0926976	6.06744
886	0.0927831	6.07114
886.5	0.0928686	6.07484
887	0.0929541	6.07854
887.5	0.0930396	6.08224
888	0.0931251	6.08594
888.5	0.0932106	6.08964
889	0.0932961	6.09334
889.5	0.0933816	6.09704
890	0.0934673	6.10074
890.5	0.0935538	6.10444
891	0.0936403	6.10814
891.5	0.0937268	6.11184
892	0.0938133	6.11554
892.5	0.0938998	6.11924
893	0.0939863	6.12294
893.5	0.0940728	6.12664
894	0.0941593	6.13034
894.5	0.0942458	6.13404
895	0.0943323	6.13774
895.5	0.0944188	6.14144
896	0.0945053	6.14514
896.5	0.0945918	6.14884
897	0.0946783	6.15254
897.5	0.0947648	6.15624
898	0.0948513	6.15994
898.5	0.0949378	6.16364
899	0.0950243	6.16734
899.5	0.0951108	6.17104
900	0.0951976	6.17474
900.5	0.0952856	6.17844
901	0.0953736	6.18214
901.5	0.0954616	6.18584
902	0.0955496	6.18954
902.5	0.0956376	6.19324
903	0.0957256	6.19694
903.5	0.0958136	6.20064
904	0.0959016	6.20434
904.5	0.0959896	6.20804
905	0.0960776	6.21174
905.5	0.0961656	6.21544
906	0.0962536	6.21914
906.5	0.0963416	6.22284
907	0.0964296	6.22654
907.5	0.0965176	6.23024
908	0.0966056	6.23394
908.5	0.0966936	6.23764
909	0.0967816	6.24134
909.5	0.0968696	6.24504
910	0.0969578	6.24874
910.5	0.0970468	6.25244
911	0.0971358	6.25614
911.5	0.0972248	6.25984
912	0.0973138	6.26354
912.5	0.0974028	6.26724
913	0.0974918	6.27094
913.5	0.0975808	6.27464
914	0.0976698	6.27834
914.5	0.0977588	6.28204
915	0.0978478	6.28574
915.5	0.0979368	6.28944
916	0.0980258	6.29314
916.5	0.0981148	6.29684
917	0.0982038	6.30054
917.5	0.0982928	6.30424
918	0.0983818	6.30794
918.5	0.0984708	6.31164
919	0.0985598	6.31534
919.5	0.0986488	6.31904
920	0.0987378	6.32274
920.5	0.0988268	6.32644
921	0.0989158	6.33014
921.5	0.0990048	6.33384
922	0.0990938	6.33754
922.5	0.0991828	6.34124
923	0.0992718	6.34494
923.5	0.0993608	6.34864
924	0.0994498	6.35234
924.5	0.0995388	6.35604
925	0.0996278	6.35974
925.5	0.0997168	6.36344
926	0.0998058	6.36714
926.5	0.0998948	6.37084
927	0.0999838	6.37454
927.5	0.1000728	6.37824
928	0.1001618	6.38194
928.5	0.1002508	6.38564
929	0.1003398	6.38934
929.5	0.1004288	6.39304
930	0.100519	6.39674
930.5	0.100614	6.40044
931	0.100709	6.40414
931.5	0.100804	6.40784
932	0.100899	6.41154
932.5	0.100994	6.41524
933	0.101089	6.41894
933.5	0.101184	6.42264
934	0.101279	6.42634
934.5	0.101374	6.43004
935	0.101469	6.43374
935.5	0.101564	6.43744
936	0.101659	6.44114
936.5	0.101754	6.44484
937	0.101849	6.44854
937.5	0.101944	6.45224
938	0.102039	6.45594
938.5	0.102134	6.45964
939	0.102229	6.46334
939.5	0.102324	6.46704
940	0.102418	6.47074
940.5	0.102508	6.47444
941	0.102598	6.47814
941.5	0.102688	6.48184
942	0.102778	6.48554
942.5	0.102868	6.48924
943	0.102958	6.49294
943.5	0.103048	6.49664
944	0.103138	6.50034
944.5	0.103228	6.50404
945	0.103318	6.50774
945.5	0.103408	6.51144
946	0.103498	6.51514
946.5	0.103588	6.51884
947	0.103678	6.52254
947.5	0.103768	6.52624
948	0.103858	6.52994
948.5	0.103948	6.53364
949	0.104038	6.53734
949.5	0.104128	6.54104
950	0.104219	6.54474
950.5	0.104314	6.54844
951	0.104409	6.55214
951.5	0.104504	6.55584
952	0.104599	6.55954
952.5	0.104694	6.56324
953	0.104789	6.56694
953.5	0.104884	6.57064
954	0.104979	6.57434
954.5	0.105074	6.57804
955	0.105169	6.58174
955.5	0.105264	6.58544
956	0.105359	6.58914
956.5	0.105454	6.59284
957	0.105549	6.59654
957.5	0.105644	6.60024
958	0.105739	6.60394
958.5	0.105834	6.60764
959	0.105929	6.61134
959.5	0.106024	6.61504
960	0.106119192	6.618737374
960.5	0.106215152	6.622424242
961	0.106311111	6.626111111
961.5	0.106407071	6.62979798
962	0.10650303	6.633484848
962.5	0.10659899	6.637171717
963	0.106694949	6.640858586
963.5	0.106790909	6.644545455
964	0.106886869	6.648232323
964.5	0.106982828	6.651919192
965	0.107078788	6.655606061
965.5	0.107174747	6.659292929
966	0.107270707	6.662979798
966.5	0.107366667	6.666666667
967	0.107462626	6.670353535
967.5	0.107558586	6.674040404
968	0.107654545	6.677727273
968.5	0.107750505	6.681414141
969	0.107846465	6.68510101
969.5	0.107942424	6.688787879
970	0.108039604	6.692465347
970.5	0.108138614	6.696128713
971	0.108237624	6.699792079
971.5	0.108336634	6.703455446
972	0.108435644	6.707118812
972.5	0.108534653	6.710782178
973	0.108633663	6.714445545
973.5	0.108732673	6.718108911
974	0.108831683	6.721772277
974.5	0.108930693	6.725435644
975	0.109029703	6.72909901
975.5	0.109128713	6.732762376
976	0.109227723	6.736425743
976.5	0.109326733	6.740089109
977	0.109425743	6.743752475
977.5	0.109524752	6.747415842
978	0.109623762	6.751079208
978.5	0.109722772	6.754742574
979	0.109821782	6.758405941
979.5	0.109920792	6.762069307
980	0.110019	6.76573
980.5	0.110114	6.76938
981	0.110209	6.77303
981.5	0.110304	6.77668
982	0.110399	6.78033
982.5	0.110494	6.78398
983	0.110589	6.78763
983.5	0.110684	6.79128
984	0.110779	6.79493
984.5	0.110874	6.79858
985	0.110969	6.80223
985.5	0.111064	6.80588
986	0.111159	6.80953
986.5	0.111254	6.81318
987	0.111349	6.81683
987.5	0.111444	6.82048
988	0.111539	6.82413
988.5	0.111634	6.82778
989	0.111729	6.83143
989.5	0.111824	6.83508
990	0.11192	6.83874
990.5	0.11202	6.84244
991	0.11212	6.84614
991.5	0.11222	6.84984
992	0.11232	6.85354
992.5	0.11242	6.85724
993	0.11252	6.86094
993.5	0.11262	6.86464
994	0.11272	6.86834
994.5	0.11282	6.87204
995	0.11292	6.87574
995.5	0.11302	6.87944
996	0.11312	6.88314
996.5	0.11322	6.88684
997	0.11332	6.89054
997.5	0.11342	6.89424
998	0.11352	6.89794
998.5	0.11362	6.90164
999	0.11372	6.90534
999.5	0.11382	6.90904
1000	0.113919802	6.912722772
1000.5	0.114018812	6.916336634
1001	0.114117822	6.919950495
1001.5	0.114216832	6.923564356
1002	0.114315842	6.927178218
1002.5	0.114414851	6.930792079
1003	0.114513861	6.934405941
1003.5	0.114612871	6.938019802
1004	0.114711881	6.941633663
1004.5	0.114810891	6.945247525
1005	0.114909901	6.948861386
1005.5	0.115008911	6.952475248
1006	0.115107921	6.956089109
1006.5	0.115206931	6.95970297
1007	0.115305941	6.963316832
1007.5	0.11540495	6.966930693
1008	0.11550396	6.970544554
1008.5	0.11560297	6.974158416
1009	0.11570198	6.977772277
1009.5	0.11580099	6.981386139
1010	0.1159	6.985
1010.5	0.116	6.9887
1011	0.1161	6.9924
1011.5	0.1162	6.9961
1012	0.1163	6.9998
1012.5	0.1164	7.0035
1013	0.1165	7.0072
1013.5	0.1166	7.0109
1014	0.1167	7.0146
1014.5	0.1168	7.0183
1015	0.1169	7.022
1015.5	0.117	7.0257
1016	0.1171	7.0294
1016.5	0.1172	7.0331
1017	0.1173	7.0368
1017.5	0.1174	7.0405
1018	0.1175	7.0442
1018.5	0.1176	7.0479
1019	0.1177	7.0516
1019.5	0.1178	7.0553
1020	0.1179	7.059
1020.5	0.118005	7.06265
1021	0.11811	7.0663
1021.5	0.118215	7.06995
1022	0.11832	7.0736
1022.5	0.118425	7.07725
1023	0.11853	7.0809
1023.5	0.118635	7.08455
1024	0.11874	7.0882
1024.5	0.118845	7.09185
1025	0.11895	7.0955
1025.5	0.119055	7.09915
1026	0.11916	7.1028
1026.5	0.119265	7.10645
1027	0.11937	7.1101
1027.5	0.119475	7.11375
1028	0.11958	7.1174
1028.5	0.119685	7.12105
1029	0.11979	7.1247
1029.5	0.119895	7.12835
1030	0.12	7.132
1030.5	0.120105	7.1357
1031	0.12021	7.1394
1031.5	0.120315	7.1431
1032	0.12042	7.1468
1032.5	0.120525	7.1505
1033	0.12063	7.1542
1033.5	0.120735	7.1579
1034	0.12084	7.1616
1034.5	0.120945	7.1653
1035	0.12105	7.169
1035.5	0.121155	7.1727
1036	0.12126	7.1764
1036.5	0.121365	7.1801
1037	0.12147	7.1838
1037.5	0.121575	7.1875
1038	0.12168	7.1912
1038.5	0.121785	7.1949
1039	0.12189	7.1986
1039.5	0.121995	7.2023
1040	0.1221	7.206
1040.5	0.122205	7.20965
1041	0.12231	7.2133
1041.5	0.122415	7.21695
1042	0.12252	7.2206
1042.5	0.122625	7.22425
1043	0.12273	7.2279
1043.5	0.122835	7.23155
1044	0.12294	7.2352
1044.5	0.123045	7.23885
1045	0.12315	7.2425
1045.5	0.123255	7.24615
1046	0.12336	7.2498
1046.5	0.123465	7.25345
1047	0.12357	7.2571
1047.5	0.123675	7.26075
1048	0.12378	7.2644
1048.5	0.123885	7.26805
1049	0.12399	7.2717
1049.5	0.124095	7.27535
1050	0.1242	7.279
1050.5	0.124305	7.28265
1051	0.12441	7.2863
1051.5	0.124515	7.28995
1052	0.12462	7.2936
1052.5	0.124725	7.29725
1053	0.12483	7.3009
1053.5	0.124935	7.30455
1054	0.12504	7.3082
1054.5	0.125145	7.31185
1055	0.12525	7.3155
1055.5	0.125355	7.31915
1056	0.12546	7.3228
1056.5	0.125565	7.32645
1057	0.12567	7.3301
1057.5	0.125775	7.33375
1058	0.12588	7.3374
1058.5	0.125985	7.34105
1059	0.12609	7.3447
1059.5	0.126195	7.34835
1060	0.1263	7.352
1060.5	0.12641	7.35565
1061	0.12652	7.3593
1061.5	0.12663	7.36295
1062	0.12674	7.3666
1062.5	0.12685	7.37025
1063	0.12696	7.3739
1063.5	0.12707	7.37755
1064	0.12718	7.3812
1064.5	0.12729	7.38485
1065	0.1274	7.3885
1065.5	0.12751	7.39215
1066	0.12762	7.3958
1066.5	0.12773	7.39945
1067	0.12784	7.4031
1067.5	0.12795	7.40675
1068	0.12806	7.4104
1068.5	0.12817	7.41405
1069	0.12828	7.4177
1069.5	0.12839	7.42135
1070	0.1285	7.425
1070.5	0.128605	7.42865
1071	0.12871	7.4323
1071.5	0.128815	7.43595
1072	0.12892	7.4396
1072.5	0.129025	7.44325
1073	0.12913	7.4469
1073.5	0.129235	7.45055
1074	0.12934	7.4542
1074.5	0.129445	7.45785
1075	0.12955	7.4615
1075.5	0.129655	7.46515
1076	0.12976	7.4688
1076.5	0.129865	7.47245
1077	0.12997	7.4761
1077.5	0.130075	7.47975
1078	0.13018	7.4834
1078.5	0.130285	7.48705
1079	0.13039	7.4907
1079.5	0.130495	7.49435
1080	0.1306	7.498
1080.5	0.13071	7.50165
1081	0.13082	7.5053
1081.5	0.13093	7.50895
1082	0.13104	7.5126
1082.5	0.13115	7.51625
1083	0.13126	7.5199
1083.5	0.13137	7.52355
1084	0.13148	7.5272
1084.5	0.13159	7.53085
1085	0.1317	7.5345
1085.5	0.13181	7.53815
1086	0.13192	7.5418
1086.5	0.13203	7.54545
1087	0.13214	7.5491
1087.5	0.13225	7.55275
1088	0.13236	7.5564
1088.5	0.13247	7.56005
1089	0.13258	7.5637
1089.5	0.13269	7.56735
1090	0.1328	7.571
1090.5	0.132915	7.5747
1091	0.13303	7.5784
1091.5	0.133145	7.5821
1092	0.13326	7.5858
1092.5	0.133375	7.5895
1093	0.13349	7.5932
1093.5	0.133605	7.5969
1094	0.13372	7.6006
1094.5	0.133835	7.6043
1095	0.13395	7.608
1095.5	0.134065	7.6117
1096	0.13418	7.6154
1096.5	0.134295	7.6191
1097	0.13441	7.6228
1097.5	0.134525	7.6265
1098	0.13464	7.6302
1098.5	0.134755	7.6339
1099	0.13487	7.6376
1099.5	0.134985	7.6413
1100	0.1351	7.645
1100.5	0.13521	7.64865
1101	0.13532	7.6523
1101.5	0.13543	7.65595
1102	0.13554	7.6596
1102.5	0.13565	7.66325
1103	0.13576	7.6669
1103.5	0.13587	7.67055
1104	0.13598	7.6742
1104.5	0.13609	7.67785
1105	0.1362	7.6815
1105.5	0.13631	7.68515
1106	0.13642	7.6888
1106.5	0.13653	7.69245
1107	0.13664	7.6961
1107.5	0.13675	7.69975
1108	0.13686	7.7034
1108.5	0.13697	7.70705
1109	0.13708	7.7107
1109.5	0.13719	7.71435
1110	0.1373	7.718
1110.5	0.137415	7.72165
1111	0.13753	7.7253
1111.5	0.137645	7.72895
1112	0.13776	7.7326
1112.5	0.137875	7.73625
1113	0.13799	7.7399
1113.5	0.138105	7.74355
1114	0.13822	7.7472
1114.5	0.138335	7.75085
1115	0.13845	7.7545
1115.5	0.138565	7.75815
1116	0.13868	7.7618
1116.5	0.138795	7.76545
1117	0.13891	7.7691
1117.5	0.139025	7.77275
1118	0.13914	7.7764
1118.5	0.139255	7.78005
1119	0.13937	7.7837
1119.5	0.139485	7.78735
1120	0.1396	7.791
1120.5	0.139715	7.7946
1121	0.13983	7.7982
1121.5	0.139945	7.8018
1122	0.14006	7.8054
1122.5	0.140175	7.809
1123	0.14029	7.8126
1123.5	0.140405	7.8162
1124	0.14052	7.8198
1124.5	0.140635	7.8234
1125	0.14075	7.827
1125.5	0.140865	7.8306
1126	0.14098	7.8342
1126.5	0.141095	7.8378
1127	0.14121	7.8414
1127.5	0.141325	7.845
1128	0.14144	7.8486
1128.5	0.141555	7.8522
1129	0.14167	7.8558
1129.5	0.141785	7.8594
1130	0.1419	7.863
1130.5	0.142015	7.86665
1131	0.14213	7.8703
1131.5	0.142245	7.87395
1132	0.14236	7.8776
1132.5	0.142475	7.88125
1133	0.14259	7.8849
1133.5	0.142705	7.88855
1134	0.14282	7.8922
1134.5	0.142935	7.89585
1135	0.14305	7.8995
1135.5	0.143165	7.90315
1136	0.14328	7.9068
1136.5	0.143395	7.91045
1137	0.14351	7.9141
1137.5	0.143625	7.91775
1138	0.14374	7.9214
1138.5	0.143855	7.92505
1139	0.14397	7.9287
1139.5	0.144085	7.93235
1140	0.1442	7.936
1140.5	0.144315	7.93965
1141	0.14443	7.9433
1141.5	0.144545	7.94695
1142	0.14466	7.9506
1142.5	0.144775	7.95425
1143	0.14489	7.9579
1143.5	0.145005	7.96155
1144	0.14512	7.9652
1144.5	0.145235	7.96885
1145	0.14535	7.9725
1145.5	0.145465	7.97615
1146	0.14558	7.9798
1146.5	0.145695	7.98345
1147	0.14581	7.9871
1147.5	0.145925	7.99075
1148	0.14604	7.9944
1148.5	0.146155	7.99805
1149	0.14627	8.0017
1149.5	0.146385	8.00535
1150	0.1465	8.009
1150.5	0.14662	8.01265
1151	0.14674	8.0163
1151.5	0.14686	8.01995
1152	0.14698	8.0236
1152.5	0.1471	8.02725
1153	0.14722	8.0309
1153.5	0.14734	8.03455
1154	0.14746	8.0382
1154.5	0.14758	8.04185
1155	0.1477	8.0455
1155.5	0.14782	8.04915
1156	0.14794	8.0528
1156.5	0.14806	8.05645
1157	0.14818	8.0601
1157.5	0.1483	8.06375
1158	0.14842	8.0674
1158.5	0.14854	8.07105
1159	0.14866	8.0747
1159.5	0.14878	8.07835
1160	0.1489	8.082
1160.5	0.14902	8.08565
1161	0.14914	8.0893
1161.5	0.14926	8.09295
1162	0.14938	8.0966
1162.5	0.1495	8.10025
1163	0.14962	8.1039
1163.5	0.14974	8.10755
1164	0.14986	8.1112
1164.5	0.14998	8.11485
1165	0.1501	8.1185
1165.5	0.15022	8.12215
1166	0.15034	8.1258
1166.5	0.15046	8.12945
1167	0.15058	8.1331
1167.5	0.1507	8.13675
1168	0.15082	8.1404
1168.5	0.15094	8.14405
1169	0.15106	8.1477
1169.5	0.15118	8.15135
1170	0.1513	8.155
1170.5	0.15142	8.15865
1171	0.15154	8.1623
1171.5	0.15166	8.16595
1172	0.15178	8.1696
1172.5	0.1519	8.17325
1173	0.15202	8.1769
1173.5	0.15214	8.18055
1174	0.15226	8.1842
1174.5	0.15238	8.18785
1175	0.1525	8.1915
1175.5	0.15262	8.19515
1176	0.15274	8.1988
1176.5	0.15286	8.20245
1177	0.15298	8.2061
1177.5	0.1531	8.20975
1178	0.15322	8.2134
1178.5	0.15334	8.21705
1179	0.15346	8.2207
1179.5	0.15358	8.22435
1180	0.1537	8.228
1180.5	0.15382	8.2316
1181	0.15394	8.2352
1181.5	0.15406	8.2388
1182	0.15418	8.2424
1182.5	0.1543	8.246
1183	0.15442	8.2496
1183.5	0.15454	8.2532
1184	0.15466	8.2568
1184.5	0.15478	8.2604
1185	0.1549	8.264
1185.5	0.15502	8.2676
1186	0.15514	8.2712
1186.5	0.15526	8.2748
1187	0.15538	8.2784
1187.5	0.1555	8.282
1188	0.15562	8.2856
1188.5	0.15574	8.2892
1189	0.15586	8.2928
1189.5	0.15598	8.2964
1190	0.1561	8.3
1190.5	0.15622	8.30365
1191	0.15634	8.3073
1191.5	0.15646	8.31095
1192	0.15658	8.3146
1192.5	0.1567	8.31825
1193	0.15682	8.3219
1193.5	0.15694	8.32555
1194	0.15706	8.3292
1194.5	0.15718	8.33285
1195	0.1573	8.3365
1195.5	0.15742	8.34015
1196	0.15754	8.3438
1196.5	0.15766	8.34745
1197	0.15778	8.3511
1197.5	0.1579	8.35475
1198	0.15802	8.3584
1198.5	0.15814	8.36205
1199	0.15826	8.3657
1199.5	0.15838	8.36935
1200	0.1585	8.373
1200.5	0.158625	8.37665
1201	0.15875	8.3803
1201.5	0.158875	8.38395
1202	0.159	8.3876
1202.5	0.159125	8.39125
1203	0.15925	8.3949
1203.5	0.159375	8.39855
1204	0.1595	8.4022
1204.5	0.159625	8.40585
1205	0.15975	8.4095
1205.5	0.159875	8.41315
1206	0.16	8.4168
1206.5	0.160125	8.42045
1207	0.16025	8.4241
1207.5	0.160375	8.42775
1208	0.1605	8.4314
1208.5	0.160625	8.43505
1209	0.16075	8.4387
1209.5	0.160875	8.44235
1210	0.161	8.446
1210.5	0.161125	8.4496
1211	0.16125	8.4532
1211.5	0.161375	8.4568
1212	0.1615	8.4604
1212.5	0.161625	8.464
1213	0.16175	8.4676
1213.5	0.161875	8.4712
1214	0.162	8.4748
1214.5	0.162125	8.4784
1215	0.16225	8.482
1215.5	0.162375	8.4856
1216	0.1625	8.4892
1216.5	0.162625	8.4928
1217	0.16275	8.4964
1217.5	0.162875	8.5
1218	0.163	8.5036
1218.5	0.163125	8.5072
1219	0.16325	8.5108
1219.5	0.163375	8.5144
1220	0.1635	8.518
1220.5	0.163625	8.52165
1221	0.16375	8.5253
1221.5	0.163875	8.52895
1222	0.164	8.5326
1222.5	0.164125	8.53625
1223	0.16425	8.5399
1223.5	0.164375	8.54355
1224	0.1645	8.5472
1224.5	0.164625	8.55085
1225	0.16475	8.5545
1225.5	0.164875	8.55815
1226	0.165	8.5618
1226.5	0.165125	8.56545
1227	0.16525	8.5691
1227.5	0.165375	8.57275
1228	0.1655	8.5764
1228.5	0.165625	8.58005
1229	0.16575	8.5837
1229.5	0.165875	8.58735
1230	0.166	8.591
1230.5	0.16613	8.59465
1231	0.16626	8.5983
1231.5	0.16639	8.60195
1232	0.16652	8.6056
1232.5	0.16665	8.60925
1233	0.16678	8.6129
1233.5	0.16691	8.61655
1234	0.16704	8.6202
1234.5	0.16717	8.62385
1235	0.1673	8.6275
1235.5	0.16743	8.63115
1236	0.16756	8.6348
1236.5	0.16769	8.63845
1237	0.16782	8.6421
1237.5	0.16795	8.64575
1238	0.16808	8.6494
1238.5	0.16821	8.65305
1239	0.16834	8.6567
1239.5	0.16847	8.66035
1240	0.1686	8.664
1240.5	0.168725	8.6676
1241	0.16885	8.6712
1241.5	0.168975	8.6748
1242	0.1691	8.6784
1242.5	0.169225	8.682
1243	0.16935	8.6856
1243.5	0.169475	8.6892
1244	0.1696	8.6928
1244.5	0.169725	8.6964
1245	0.16985	8.7
1245.5	0.169975	8.7036
1246	0.1701	8.7072
1246.5	0.170225	8.7108
1247	0.17035	8.7144
1247.5	0.170475	8.718
1248	0.1706	8.7216
1248.5	0.170725	8.7252
1249	0.17085	8.7288
1249.5	0.170975	8.7324
1250	0.1711	8.736
1250.5	0.17123	8.73965
1251	0.17136	8.7433
1251.5	0.17149	8.74695
1252	0.17162	8.7506
1252.5	0.17175	8.75425
1253	0.17188	8.7579
1253.5	0.17201	8.76155
1254	0.17214	8.7652
1254.5	0.17227	8.76885
1255	0.1724	8.7725
1255.5	0.17253	8.77615
1256	0.17266	8.7798
1256.5	0.17279	8.78345
1257	0.17292	8.7871
1257.5	0.17305	8.79075
1258	0.17318	8.7944
1258.5	0.17331	8.79805
1259	0.17344	8.8017
1259.5	0.17357	8.80535
1260	0.1737	8.809
1260.5	0.1738375	8.81275
1261	0.173975	8.8165
1261.5	0.1741125	8.82025
1262	0.17425	8.824
1262.5	0.1743875	8.82775
1263	0.174525	8.8315
1263.5	0.1746625	8.83525
1264	0.1748	8.839
1264.5	0.1749375	8.84275
1265	0.175075	8.8465
1265.5	0.1752125	8.85025
1266	0.17535	8.854
1266.5	0.1754875	8.85775
1267	0.175625	8.8615
1267.5	0.1757625	8.86525
1268	0.1759	8.869
1268.5	0.176	8.872
1269	0.1761	8.875
1269.5	0.1762	8.878
1270	0.1763	8.881
1270.5	0.1764375	8.8848125
1271	0.176575	8.888625
1271.5	0.1767125	8.8924375
1272	0.17685	8.89625
1272.5	0.1769875	8.9000625
1273	0.177125	8.903875
1273.5	0.1772625	8.9076875
1274	0.1774	8.9115
1274.5	0.1775375	8.9153125
1275	0.177675	8.919125
1275.5	0.1778125	8.9229375
1276	0.17795	8.92675
1276.5	0.1780875	8.9305625
1277	0.178225	8.934375
1277.5	0.1783625	8.9381875
1278	0.1785	8.942
1278.5	0.178625	8.945
1279	0.17875	8.948
1279.5	0.178875	8.951
1280	0.179	8.954
1280.5	0.1791375	8.9578125
1281	0.179275	8.961625
1281.5	0.1794125	8.9654375
1282	0.17955	8.96925
1282.5	0.1796875	8.9730625
1283	0.179825	8.976875
1283.5	0.1799625	8.9806875
1284	0.1801	8.9845
1284.5	0.1802375	8.9883125
1285	0.180375	8.992125
1285.5	0.1805125	8.9959375
1286	0.18065	8.99975
1286.5	0.1807875	9.0035625
1287	0.180925	9.007375
1287.5	0.1810625	9.0111875
1288	0.1812	9.015
1288.5	0.1813	9.01775
1289	0.1814	9.0205
1289.5	0.1815	9.02325
1290	0.1816	9.026
1290.5	0.181733333	9.029555556
1291	0.181866667	9.033111111
1291.5	0.182	9.036666667
1292	0.182133333	9.040222222
1292.5	0.182266667	9.043777778
1293	0.1824	9.047333333
1293.5	0.182533333	9.050888889
1294	0.182666667	9.054444444
1294.5	0.1828	9.058
1295	0.182933333	9.061555556
1295.5	0.183066667	9.065111111
1296	0.1832	9.068666667
1296.5	0.183333333	9.072222222
1297	0.183466667	9.075777778
1297.5	0.1836	9.079333333
1298	0.183733333	9.082888889
1298.5	0.183866667	9.086444444
1299	0.184	9.09
1299.5	0.18415	9.0945
1300	0.1843	9.099
1300.5	0.184438889	9.102722222
1301	0.184577778	9.106444444
1301.5	0.184716667	9.110166667
1302	0.184855556	9.113888889
1302.5	0.184994444	9.117611111
1303	0.185133333	9.121333333
1303.5	0.185272222	9.125055556
1304	0.185411111	9.128777778
1304.5	0.18555	9.1325
1305	0.185688889	9.136222222
1305.5	0.185827778	9.139944444
1306	0.185966667	9.143666667
1306.5	0.186105556	9.147388889
1307	0.186244444	9.151111111
1307.5	0.186383333	9.154833333
1308	0.186522222	9.158555556
1308.5	0.186661111	9.162277778
1309	0.1868	9.166
1309.5	0.1869	9.1685
1310	0.187	9.171
1310.5	0.187135	9.1746
1311	0.18727	9.1782
1311.5	0.187405	9.1818
1312	0.18754	9.1854
1312.5	0.187675	9.189
1313	0.18781	9.1926
1313.5	0.187945	9.1962
1314	0.18808	9.1998
1314.5	0.188215	9.2034
1315	0.18835	9.207
1315.5	0.188485	9.2106
1316	0.18862	9.2142
1316.5	0.188755	9.2178
1317	0.18889	9.2214
1317.5	0.189025	9.225
1318	0.18916	9.2286
1318.5	0.189295	9.2322
1319	0.18943	9.2358
1319.5	0.189565	9.2394
1320	0.1897	9.243
1320.5	0.1898375	9.2466875
1321	0.189975	9.250375
1321.5	0.1901125	9.2540625
1322	0.19025	9.25775
1322.5	0.1903875	9.2614375
1323	0.190525	9.265125
1323.5	0.1906625	9.2688125
1324	0.1908	9.2725
1324.5	0.1909375	9.2761875
1325	0.191075	9.279875
1325.5	0.1912125	9.2835625
1326	0.19135	9.28725
1326.5	0.1914875	9.2909375
1327	0.191625	9.294625
1327.5	0.1917625	9.2983125
1328	0.1919	9.302
1328.5	0.192025	9.3055
1329	0.19215	9.309
1329.5	0.192275	9.3125
1330	0.1924	9.316
1330.5	0.192538889	9.319611111
1331	0.192677778	9.323222222
1331.5	0.192816667	9.326833333
1332	0.192955556	9.330444444
1332.5	0.193094444	9.334055556
1333	0.193233333	9.337666667
1333.5	0.193372222	9.341277778
1334	0.193511111	9.344888889
1334.5	0.19365	9.3485
1335	0.193788889	9.352111111
1335.5	0.193927778	9.355722222
1336	0.194066667	9.359333333
1336.5	0.194205556	9.362944444
1337	0.194344444	9.366555556
1337.5	0.194483333	9.370166667
1338	0.194622222	9.373777778
1338.5	0.194761111	9.377388889
1339	0.1949	9.381
1339.5	0.19505	9.3845
1340	0.1952	9.388
1340.5	0.19535	9.391857143
1341	0.1955	9.395714286
1341.5	0.19565	9.399571429
1342	0.1958	9.403428571
1342.5	0.19595	9.407285714
1343	0.1961	9.411142857
1343.5	0.19625	9.415
1344	0.1964	9.418857143
1344.5	0.19655	9.422714286
1345	0.1967	9.426571429
1345.5	0.19685	9.430428571
1346	0.197	9.434285714
1346.5	0.19715	9.438142857
1347	0.1973	9.442
1347.5	0.197416667	9.445
1348	0.197533333	9.448
1348.5	0.19765	9.451
1349	0.197766667	9.454
1349.5	0.197883333	9.457
1350	0.198	9.46
1350.5	0.198133333	9.463555556
1351	0.198266667	9.467111111
1351.5	0.1984	9.470666667
1352	0.198533333	9.474222222
1352.5	0.198666667	9.477777778
1353	0.1988	9.481333333
1353.5	0.198933333	9.484888889
1354	0.199066667	9.488444444
1354.5	0.1992	9.492
1355	0.199333333	9.495555556
1355.5	0.199466667	9.499111111
1356	0.1996	9.502666667
1356.5	0.199733333	9.506222222
1357	0.199866667	9.509777778
1357.5	0.2	9.513333333
1358	0.200133333	9.516888889
1358.5	0.200266667	9.520444444
1359	0.2004	9.524
1359.5	0.20055625	9.527875
1360	0.2007125	9.53175
1360.5	0.20086875	9.535625
1361	0.201025	9.5395
1361.5	0.20118125	9.543375
1362	0.2013375	9.54725
1362.5	0.20149375	9.551125
1363	0.20165	9.555
1363.5	0.20180625	9.558875
1364	0.2019625	9.56275
1364.5	0.20211875	9.566625
1365	0.202275	9.5705
1365.5	0.20243125	9.574375
1366	0.2025875	9.57825
1366.5	0.20274375	9.582125
1367	0.2029	9.586
1367.5	0.2030375	9.5895
1368	0.203175	9.593
1368.5	0.2033125	9.5965
1369	0.20345	9.6
1369.5	0.2035875	9.6035
1370	0.203725	9.607
1370.5	0.2038625	9.6105
1371	0.204	9.614
1371.5	0.2041375	9.6175
1372	0.204275	9.621
1372.5	0.2044125	9.6245
1373	0.20455	9.628
1373.5	0.2046875	9.6315
1374	0.204825	9.635
1374.5	0.2049625	9.6385
1375	0.2051	9.642
1375.5	0.2052375	9.6455
1376	0.205375	9.649
1376.5	0.2055125	9.6525
1377	0.20565	9.656
1377.5	0.2057875	9.6595
1378	0.205925	9.663
1378.5	0.2060625	9.6665
1379	0.2062	9.67
1379.5	0.206338889	9.673555556
1380	0.206477778	9.677111111
1380.5	0.206616667	9.680666667
1381	0.206755556	9.684222222
1381.5	0.206894444	9.687777778
1382	0.207033333	9.691333333
1382.5	0.207172222	9.694888889
1383	0.207311111	9.698444444
1383.5	0.20745	9.702
1384	0.207588889	9.705555556
1384.5	0.207727778	9.709111111
1385	0.207866667	9.712666667
1385.5	0.208005556	9.716222222
1386	0.208144444	9.719777778
1386.5	0.208283333	9.723333333
1387	0.208422222	9.726888889
1387.5	0.208561111	9.730444444
1388	0.2087	9.734
1388.5	0.208845833	9.737583333
1389	0.208991667	9.741166667
1389.5	0.2091375	9.74475
1390	0.209283333	9.748333333
1390.5	0.209429167	9.751916667
1391	0.209575	9.7555
1391.5	0.209720833	9.759083333
1392	0.209866667	9.762666667
1392.5	0.2100125	9.76625
1393	0.210158333	9.769833333
1393.5	0.210304167	9.773416667
1394	0.21045	9.777
1394.5	0.210595833	9.780583333
1395	0.210741667	9.784166667
1395.5	0.2108875	9.78775
1396	0.211033333	9.791333333
1396.5	0.211179167	9.794916667
1397	0.211325	9.7985
1397.5	0.211470833	9.802083333
1398	0.211616667	9.805666667
1398.5	0.2117625	9.80925
1399	0.211908333	9.812833333
1399.5	0.212054167	9.816416667
1400	0.2122	9.82
1400.5	0.212344444	9.823666667
1401	0.212488889	9.827333333
1401.5	0.212633333	9.831
1402	0.212777778	9.834666667
1402.5	0.212922222	9.838333333
1403	0.213066667	9.842
1403.5	0.213211111	9.845666667
1404	0.213355556	9.849333333
1404.5	0.2135	9.853
1405	0.213644444	9.856666667
1405.5	0.213788889	9.860333333
1406	0.213933333	9.864
1406.5	0.214077778	9.867666667
1407	0.214222222	9.871333333
1407.5	0.214366667	9.875
1408	0.214511111	9.878666667
1408.5	0.214655556	9.882333333
1409	0.2148	9.886
1409.5	0.214955556	9.889722222
1410	0.215111111	9.893444444
1410.5	0.215266667	9.897166667
1411	0.215422222	9.900888889
1411.5	0.215577778	9.904611111
1412	0.215733333	9.908333333
1412.5	0.215888889	9.912055556
1413	0.216044444	9.915777778
1413.5	0.2162	9.9195
1414	0.216355556	9.923222222
1414.5	0.216511111	9.926944444
1415	0.216666667	9.930666667
1415.5	0.216822222	9.934388889
1416	0.216977778	9.938111111
1416.5	0.217133333	9.941833333
1417	0.217288889	9.945555556
1417.5	0.217444444	9.949277778
1418	0.2176	9.953
1418.5	0.21775	9.956722222
1419	0.2179	9.960444444
1419.5	0.21805	9.964166667
1420	0.2182	9.967888889
1420.5	0.21835	9.971611111
1421	0.2185	9.975333333
1421.5	0.21865	9.979055556
1422	0.2188	9.982777778
1422.5	0.21895	9.9865
1423	0.2191	9.990222222
1423.5	0.21925	9.993944444
1424	0.2194	9.997666667
1424.5	0.21955	10.00138889
1425	0.2197	10.00511111
1425.5	0.21985	10.00883333
1426	0.22	10.01255556
1426.5	0.22015	10.01627778
1427	0.2203	10.02
1427.5	0.220416667	10.02333333
1428	0.220533333	10.02666667
1428.5	0.22065	10.03
1429	0.220766667	10.03333333
1429.5	0.220883333	10.03666667
1430	0.221	10.04
1430.5	0.22115	10.04357143
1431	0.2213	10.04714286
1431.5	0.22145	10.05071429
1432	0.2216	10.05428571
1432.5	0.22175	10.05785714
1433	0.2219	10.06142857
1433.5	0.22205	10.065
1434	0.2222	10.06857143
1434.5	0.22235	10.07214286
1435	0.2225	10.07571429
1435.5	0.22265	10.07928571
1436	0.2228	10.08285714
1436.5	0.22295	10.08642857
1437	0.2231	10.09
1437.5	0.22325	10.09333333
1438	0.2234	10.09666667
1438.5	0.22355	10.1
1439	0.2237	10.10333333
1439.5	0.22385	10.10666667
1440	0.224	10.11
1440.5	0.22415	10.1135
1441	0.2243	10.117
1441.5	0.22445	10.1205
1442	0.2246	10.124
1442.5	0.22475	10.1275
1443	0.2249	10.131
1443.5	0.22505	10.1345
1444	0.2252	10.138
1444.5	0.22535	10.1415
1445	0.2255	10.145
1445.5	0.22565	10.1485
1446	0.2258	10.152
1446.5	0.22595	10.1555
1447	0.2261	10.159
1447.5	0.22625	10.1625
1448	0.2264	10.166
1448.5	0.22655	10.1695
1449	0.2267	10.173
1449.5	0.22685	10.1765
1450	0.227	10.18
1450.5	0.22715	10.1835
1451	0.2273	10.187
1451.5	0.22745	10.1905
1452	0.2276	10.194
1452.5	0.22775	10.1975
1453	0.2279	10.201
1453.5	0.22805	10.2045
1454	0.2282	10.208
1454.5	0.22835	10.2115
1455	0.2285	10.215
1455.5	0.22865	10.2185
1456	0.2288	10.222
1456.5	0.22895	10.2255
1457	0.2291	10.229
1457.5	0.22925	10.2325
1458	0.2294	10.236
1458.5	0.22955	10.2395
1459	0.2297	10.243
1459.5	0.22985	10.2465
1460	0.2301	10.26
1460.5	0.230261111	10.26333333
1461	0.230422222	10.26666667
1461.5	0.230583333	10.27
1462	0.230744444	10.27333333
1462.5	0.230905556	10.27666667
1463	0.231066667	10.28
1463.5	0.231227778	10.28333333
1464	0.231388889	10.28666667
1464.5	0.23155	10.29
1465	0.231711111	10.29333333
1465.5	0.231872222	10.29666667
1466	0.232033333	10.3
1466.5	0.232194444	10.30333333
1467	0.232355556	10.30666667
1467.5	0.232516667	10.31
1468	0.232677778	10.31333333
1468.5	0.232838889	10.31666667
1469	0.233	10.32
1469.5	0.23305	10.325
1470	0.2331	10.33
1470.5	0.23325	10.3335
1471	0.2334	10.337
1471.5	0.23355	10.3405
1472	0.2337	10.344
1472.5	0.23385	10.3475
1473	0.234	10.351
1473.5	0.23415	10.3545
1474	0.2343	10.358
1474.5	0.23445	10.3615
1475	0.2346	10.365
1475.5	0.23475	10.3685
1476	0.2349	10.372
1476.5	0.23505	10.3755
1477	0.2352	10.379
1477.5	0.23535	10.3825
1478	0.2355	10.386
1478.5	0.23565	10.3895
1479	0.2358	10.393
1479.5	0.23595	10.3965
1480	0.2362	10.4
1480.5	0.23635	10.4035
1481	0.2365	10.407
1481.5	0.23665	10.4105
1482	0.2368	10.414
1482.5	0.23695	10.4175
1483	0.2371	10.421
1483.5	0.23725	10.4245
1484	0.2374	10.428
1484.5	0.23755	10.4315
1485	0.2377	10.435
1485.5	0.23785	10.4385
1486	0.238	10.442
1486.5	0.23815	10.4455
1487	0.2383	10.449
1487.5	0.23845	10.4525
1488	0.2386	10.456
1488.5	0.23875	10.4595
1489	0.2389	10.463
1489.5	0.23905	10.4665
1490	0.2393	10.47
1490.5	0.23945	10.47357143
1491	0.2396	10.47714286
1491.5	0.23975	10.48071429
1492	0.2399	10.48428571
1492.5	0.24005	10.48785714
1493	0.2402	10.49142857
1493.5	0.24035	10.495
1494	0.2405	10.49857143
1494.5	0.24065	10.50214286
1495	0.2408	10.50571429
1495.5	0.24095	10.50928571
1496	0.2411	10.51285714
1496.5	0.24125	10.51642857
1497	0.2414	10.52
1497.5	0.241566667	10.52333333
1498	0.241733333	10.52666667
1498.5	0.2419	10.53
1499	0.242066667	10.53333333
1499.5	0.242233333	10.53666667
1500	0.2424	10.54
1500.5	0.242557143	10.54428571
1501	0.242714286	10.54857143
1501.5	0.242871429	10.55285714
1502	0.243028571	10.55714286
1502.5	0.243185714	10.56142857
1503	0.243342857	10.56571429
1503.5	0.2435	10.57
1504	0.243657143	10.57428571
1504.5	0.243814286	10.57857143
1505	0.243971429	10.58285714
1505.5	0.244128571	10.58714286
1506	0.244285714	10.59142857
1506.5	0.244442857	10.59571429
1507	0.2446	10.6
1507.5	0.24475	10.60333333
1508	0.2449	10.60666667
1508.5	0.24505	10.61
1509	0.2452	10.61333333
1509.5	0.24535	10.61666667
1510	0.2455	10.62
1510.5	0.24565625	10.623125
1511	0.2458125	10.62625
1511.5	0.24596875	10.629375
1512	0.246125	10.6325
1512.5	0.24628125	10.635625
1513	0.2464375	10.63875
1513.5	0.24659375	10.641875
1514	0.24675	10.645
1514.5	0.24690625	10.648125
1515	0.2470625	10.65125
1515.5	0.24721875	10.654375
1516	0.247375	10.6575
1516.5	0.24753125	10.660625
1517	0.2476875	10.66375
1517.5	0.24784375	10.666875
1518	0.248	10.67
1518.5	0.248175	10.675
1519	0.24835	10.68
1519.5	0.248525	10.685
1520	0.2487	10.69
1520.5	0.24886875	10.69375
1521	0.2490375	10.6975
1521.5	0.24920625	10.70125
1522	0.249375	10.705
1522.5	0.24954375	10.70875
1523	0.2497125	10.7125
1523.5	0.24988125	10.71625
1524	0.25005	10.72
1524.5	0.25021875	10.72375
1525	0.2503875	10.7275
1525.5	0.25055625	10.73125
1526	0.250725	10.735
1526.5	0.25089375	10.73875
1527	0.2510625	10.7425
1527.5	0.25123125	10.74625
1528	0.2514	10.75
1528.5	0.2515	10.7525
1529	0.2516	10.755
1529.5	0.2517	10.7575
1530	0.2518	10.76
1530.5	0.251972222	10.76388889
1531	0.252144444	10.76777778
1531.5	0.252316667	10.77166667
1532	0.252488889	10.77555556
1532.5	0.252661111	10.77944444
1533	0.252833333	10.78333333
1533.5	0.253005556	10.78722222
1534	0.253177778	10.79111111
1534.5	0.25335	10.795
1535	0.253522222	10.79888889
1535.5	0.253694444	10.80277778
1536	0.253866667	10.80666667
1536.5	0.254038889	10.81055556
1537	0.254211111	10.81444444
1537.5	0.254383333	10.81833333
1538	0.254555556	10.82222222
1538.5	0.254727778	10.82611111
1539	0.2549	10.83
1539.5	0.25495	10.83
1540	0.255	10.83
1540.5	0.255157143	10.83357143
1541	0.255314286	10.83714286
1541.5	0.255471429	10.84071429
1542	0.255628571	10.84428571
1542.5	0.255785714	10.84785714
1543	0.255942857	10.85142857
1543.5	0.2561	10.855
1544	0.256257143	10.85857143
1544.5	0.256414286	10.86214286
1545	0.256571429	10.86571429
1545.5	0.256728571	10.86928571
1546	0.256885714	10.87285714
1546.5	0.257042857	10.87642857
1547	0.2572	10.88
1547.5	0.257366667	10.88333333
1548	0.257533333	10.88666667
1548.5	0.2577	10.89
1549	0.257866667	10.89333333
1549.5	0.258033333	10.89666667
1550	0.2582	10.9
1550.5	0.2583625	10.90375
1551	0.258525	10.9075
1551.5	0.2586875	10.91125
1552	0.25885	10.915
1552.5	0.2590125	10.91875
1553	0.259175	10.9225
1553.5	0.2593375	10.92625
1554	0.2595	10.93
1554.5	0.2596625	10.93375
1555	0.259825	10.9375
1555.5	0.2599875	10.94125
1556	0.26015	10.945
1556.5	0.2603125	10.94875
1557	0.260475	10.9525
1557.5	0.2606375	10.95625
1558	0.2608	10.96
1558.5	0.260975	10.965
1559	0.26115	10.97
1559.5	0.261325	10.975
1560	0.2615	10.98
1560.5	0.261666667	10.98333333
1561	0.261833333	10.98666667
1561.5	0.262	10.99
1562	0.262166667	10.99333333
1562.5	0.262333333	10.99666667
1563	0.2625	11
1563.5	0.262666667	11.00333333
1564	0.262833333	11.00666667
1564.5	0.263	11.01
1565	0.263166667	11.01333333
1565.5	0.263333333	11.01666667
1566	0.2635	11.02
1566.5	0.263666667	11.02333333
1567	0.263833333	11.02666667
1567.5	0.264	11.03
1568	0.264166667	11.03333333
1568.5	0.264333333	11.03666667
1569	0.2645	11.04
1569.5	0.2646	11.045
1570	0.2647	11.05
1570.5	0.264864286	11.05357143
1571	0.265028571	11.05714286
1571.5	0.265192857	11.06071429
1572	0.265357143	11.06428571
1572.5	0.265521429	11.06785714
1573	0.265685714	11.07142857
1573.5	0.26585	11.075
1574	0.266014286	11.07857143
1574.5	0.266178571	11.08214286
1575	0.266342857	11.08571429
1575.5	0.266507143	11.08928571
1576	0.266671429	11.09285714
1576.5	0.266835714	11.09642857
1577	0.267	11.1
1577.5	0.267166667	11.10333333
1578	0.267333333	11.10666667
1578.5	0.2675	11.11
1579	0.267666667	11.11333333
1579.5	0.267833333	11.11666667
1580	0.268	11.12
1580.5	0.268175	11.12375
1581	0.26835	11.1275
1581.5	0.268525	11.13125
1582	0.2687	11.135
1582.5	0.268875	11.13875
1583	0.26905	11.1425
1583.5	0.269225	11.14625
1584	0.2694	11.15
1584.5	0.269575	11.15375
1585	0.26975	11.1575
1585.5	0.269925	11.16125
1586	0.2701	11.165
1586.5	0.270275	11.16875
1587	0.27045	11.1725
1587.5	0.270625	11.17625
1588	0.2708	11.18
1588.5	0.270925	11.1825
1589	0.27105	11.185
1589.5	0.271175	11.1875
1590	0.2713	11.19
1590.5	0.271475	11.19416667
1591	0.27165	11.19833333
1591.5	0.271825	11.2025
1592	0.272	11.20666667
1592.5	0.272175	11.21083333
1593	0.27235	11.215
1593.5	0.272525	11.21916667
1594	0.2727	11.22333333
1594.5	0.272875	11.2275
1595	0.27305	11.23166667
1595.5	0.273225	11.23583333
1596	0.2734	11.24
1596.5	0.2735625	11.2425
1597	0.273725	11.245
1597.5	0.2738875	11.2475
1598	0.27405	11.25
1598.5	0.2742125	11.2525
1599	0.274375	11.255
1599.5	0.2745375	11.2575
1600	0.2747	11.26
1600.5	0.27486875	11.26375
1601	0.2750375	11.2675
1601.5	0.27520625	11.27125
1602	0.275375	11.275
1602.5	0.27554375	11.27875
1603	0.2757125	11.2825
1603.5	0.27588125	11.28625
1604	0.27605	11.29
1604.5	0.27621875	11.29375
1605	0.2763875	11.2975
1605.5	0.27655625	11.30125
1606	0.276725	11.305
1606.5	0.27689375	11.30875
1607	0.2770625	11.3125
1607.5	0.27723125	11.31625
1608	0.2774	11.32
1608.5	0.27755	11.325
1609	0.2777	11.33
1609.5	0.27785	11.335
1610	0.278	11.34
1610.5	0.278175	11.34333333
1611	0.27835	11.34666667
1611.5	0.278525	11.35
1612	0.2787	11.35333333
1612.5	0.278875	11.35666667
1613	0.27905	11.36
1613.5	0.279225	11.36333333
1614	0.2794	11.36666667
1614.5	0.279575	11.37
1615	0.27975	11.37333333
1615.5	0.279925	11.37666667
1616	0.2801	11.38
1616.5	0.2802625	11.38375
1617	0.280425	11.3875
1617.5	0.2805875	11.39125
1618	0.28075	11.395
1618.5	0.2809125	11.39875
1619	0.281075	11.4025
1619.5	0.2812375	11.40625
1620	0.2814	11.41
1620.5	0.281575	11.41375
1621	0.28175	11.4175
1621.5	0.281925	11.42125
1622	0.2821	11.425
1622.5	0.282275	11.42875
1623	0.28245	11.4325
1623.5	0.282625	11.43625
1624	0.2828	11.44
1624.5	0.282975	11.44375
1625	0.28315	11.4475
1625.5	0.283325	11.45125
1626	0.2835	11.455
1626.5	0.283675	11.45875
1627	0.28385	11.4625
1627.5	0.284025	11.46625
1628	0.2842	11.47
1628.5	0.28435	11.4725
1629	0.2845	11.475
1629.5	0.28465	11.4775
1630	0.2848	11.48
1630.5	0.284983333	11.48416667
1631	0.285166667	11.48833333
1631.5	0.28535	11.4925
1632	0.285533333	11.49666667
1632.5	0.285716667	11.50083333
1633	0.2859	11.505
1633.5	0.286083333	11.50916667
1634	0.286266667	11.51333333
1634.5	0.28645	11.5175
1635	0.286633333	11.52166667
1635.5	0.286816667	11.52583333
1636	0.287	11.53
1636.5	0.28715	11.5325
1637	0.2873	11.535
1637.5	0.28745	11.5375
1638	0.2876	11.54
1638.5	0.28775	11.5425
1639	0.2879	11.545
1639.5	0.28805	11.5475
1640	0.2882	11.55
1640.5	0.288372222	11.55388889
1641	0.288544444	11.55777778
1641.5	0.288716667	11.56166667
1642	0.288888889	11.56555556
1642.5	0.289061111	11.56944444
1643	0.289233333	11.57333333
1643.5	0.289405556	11.57722222
1644	0.289577778	11.58111111
1644.5	0.28975	11.585
1645	0.289922222	11.58888889
1645.5	0.290094444	11.59277778
1646	0.290266667	11.59666667
1646.5	0.290438889	11.60055556
1647	0.290611111	11.60444444
1647.5	0.290783333	11.60833333
1648	0.290955556	11.61222222
1648.5	0.291127778	11.61611111
1649	0.2913	11.62
1649.5	0.29145	11.62
1650	0.2916	11.62
1650.5	0.291785714	11.62428571
1651	0.291971429	11.62857143
1651.5	0.292157143	11.63285714
1652	0.292342857	11.63714286
1652.5	0.292528571	11.64142857
1653	0.292714286	11.64571429
1653.5	0.2929	11.65
1654	0.293085714	11.65428571
1654.5	0.293271429	11.65857143
1655	0.293457143	11.66285714
1655.5	0.293642857	11.66714286
1656	0.293828571	11.67142857
1656.5	0.294014286	11.67571429
1657	0.2942	11.68
1657.5	0.29435	11.68166667
1658	0.2945	11.68333333
1658.5	0.29465	11.685
1659	0.2948	11.68666667
1659.5	0.29495	11.68833333
1660	0.2951	11.69
1660.5	0.295275	11.69416667
1661	0.29545	11.69833333
1661.5	0.295625	11.7025
1662	0.2958	11.70666667
1662.5	0.295975	11.71083333
1663	0.29615	11.715
1663.5	0.296325	11.71916667
1664	0.2965	11.72333333
1664.5	0.296675	11.7275
1665	0.29685	11.73166667
1665.5	0.297025	11.73583333
1666	0.2972	11.74
1666.5	0.2973625	11.74375
1667	0.297525	11.7475
1667.5	0.2976875	11.75125
1668	0.29785	11.755
1668.5	0.2980125	11.75875
1669	0.298175	11.7625
1669.5	0.2983375	11.76625
1670	0.2985	11.77
1670.5	0.298677778	11.77333333
1671	0.298855556	11.77666667
1671.5	0.299033333	11.78
1672	0.299211111	11.78333333
1672.5	0.299388889	11.78666667
1673	0.299566667	11.79
1673.5	0.299744444	11.79333333
1674	0.299922222	11.79666667
1674.5	0.3001	11.8
1675	0.300277778	11.80333333
1675.5	0.300455556	11.80666667
1676	0.300633333	11.81
1676.5	0.300811111	11.81333333
1677	0.300988889	11.81666667
1677.5	0.301166667	11.82
1678	0.301344444	11.82333333
1678.5	0.301522222	11.82666667
1679	0.3017	11.83
1679.5	0.30185	11.835
1680	0.302	11.84
1680.5	0.302175	11.843125
1681	0.30235	11.84625
1681.5	0.302525	11.849375
1682	0.3027	11.8525
1682.5	0.302875	11.855625
1683	0.30305	11.85875
1683.5	0.303225	11.861875
1684	0.3034	11.865
1684.5	0.303575	11.868125
1685	0.30375	11.87125
1685.5	0.303925	11.874375
1686	0.3041	11.8775
1686.5	0.304275	11.880625
1687	0.30445	11.88375
1687.5	0.304625	11.886875
1688	0.3048	11.89
1688.5	0.305	11.895
1689	0.3052	11.9
1689.5	0.3054	11.905
1690	0.3056	11.91
1690.5	0.305791667	11.91416667
1691	0.305983333	11.91833333
1691.5	0.306175	11.9225
1692	0.306366667	11.92666667
1692.5	0.306558333	11.93083333
1693	0.30675	11.935
1693.5	0.306941667	11.93916667
1694	0.307133333	11.94333333
1694.5	0.307325	11.9475
1695	0.307516667	11.95166667
1695.5	0.307708333	11.95583333
1696	0.3079	11.96
1696.5	0.30805	11.9625
1697	0.3082	11.965
1697.5	0.30835	11.9675
1698	0.3085	11.97
1698.5	0.30865	11.9725
1699	0.3088	11.975
1699.5	0.30895	11.9775
1700	0.3091	11.98
1700.5	0.3093	11.984
1701	0.3095	11.988
1701.5	0.3097	11.992
1702	0.3099	11.996
1702.5	0.3101	12
1703	0.3103	12.004
1703.5	0.3105	12.008
1704	0.3107	12.012
1704.5	0.3109	12.016
1705	0.3111	12.02
1705.5	0.31126	12.023
1706	0.31142	12.026
1706.5	0.31158	12.029
1707	0.31174	12.032
1707.5	0.3119	12.035
1708	0.31206	12.038
1708.5	0.31222	12.041
1709	0.31238	12.044
1709.5	0.31254	12.047
1710	0.3127	12.05
1710.5	0.312877778	12.05388889
1711	0.313055556	12.05777778
1711.5	0.313233333	12.06166667
1712	0.313411111	12.06555556
1712.5	0.313588889	12.06944444
1713	0.313766667	12.07333333
1713.5	0.313944444	12.07722222
1714	0.314122222	12.08111111
1714.5	0.3143	12.085
1715	0.314477778	12.08888889
1715.5	0.314655556	12.09277778
1716	0.314833333	12.09666667
1716.5	0.315011111	12.10055556
1717	0.315188889	12.10444444
1717.5	0.315366667	12.10833333
1718	0.315544444	12.11222222
1718.5	0.315722222	12.11611111
1719	0.3159	12.12
1719.5	0.31605	12.125
1720	0.3162	12.13
1720.5	0.3163875	12.133125
1721	0.316575	12.13625
1721.5	0.3167625	12.139375
1722	0.31695	12.1425
1722.5	0.3171375	12.145625
1723	0.317325	12.14875
1723.5	0.3175125	12.151875
1724	0.3177	12.155
1724.5	0.3178875	12.158125
1725	0.318075	12.16125
1725.5	0.3182625	12.164375
1726	0.31845	12.1675
1726.5	0.3186375	12.170625
1727	0.318825	12.17375
1727.5	0.3190125	12.176875
1728	0.3192	12.18
1728.5	0.31935	12.185
1729	0.3195	12.19
1729.5	0.31965	12.195
1730	0.3198	12.2
1730.5	0.32	12.20357143
1731	0.3202	12.20714286
1731.5	0.3204	12.21071429
1732	0.3206	12.21428571
1732.5	0.3208	12.21785714
1733	0.321	12.22142857
1733.5	0.3212	12.225
1734	0.3214	12.22857143
1734.5	0.3216	12.23214286
1735	0.3218	12.23571429
1735.5	0.322	12.23928571
1736	0.3222	12.24285714
1736.5	0.3224	12.24642857
1737	0.3226	12.25
1737.5	0.32275	12.25333333
1738	0.3229	12.25666667
1738.5	0.32305	12.26
1739	0.3232	12.26333333
1739.5	0.32335	12.26666667
1740	0.3235	12.27
1740.5	0.323678571	12.27357143
1741	0.323857143	12.27714286
1741.5	0.324035714	12.28071429
1742	0.324214286	12.28428571
1742.5	0.324392857	12.28785714
1743	0.324571429	12.29142857
1743.5	0.32475	12.295
1744	0.324928571	12.29857143
1744.5	0.325107143	12.30214286
1745	0.325285714	12.30571429
1745.5	0.325464286	12.30928571
1746	0.325642857	12.31285714
1746.5	0.325821429	12.31642857
1747	0.326	12.32
1747.5	0.326183333	12.32333333
1748	0.326366667	12.32666667
1748.5	0.32655	12.33
1749	0.326733333	12.33333333
1749.5	0.326916667	12.33666667
1750	0.3271	12.34
1750.5	0.3273	12.34416667
1751	0.3275	12.34833333
1751.5	0.3277	12.3525
1752	0.3279	12.35666667
1752.5	0.3281	12.36083333
1753	0.3283	12.365
1753.5	0.3285	12.36916667
1754	0.3287	12.37333333
1754.5	0.3289	12.3775
1755	0.3291	12.38166667
1755.5	0.3293	12.38583333
1756	0.3295	12.39
1756.5	0.3296625	12.3925
1757	0.329825	12.395
1757.5	0.3299875	12.3975
1758	0.33015	12.4
1758.5	0.3303125	12.4025
1759	0.330475	12.405
1759.5	0.3306375	12.4075
1760	0.3308	12.41
1760.5	0.330983333	12.41416667
1761	0.331166667	12.41833333
1761.5	0.33135	12.4225
1762	0.331533333	12.42666667
1762.5	0.331716667	12.43083333
1763	0.3319	12.435
1763.5	0.332083333	12.43916667
1764	0.332266667	12.44333333
1764.5	0.33245	12.4475
1765	0.332633333	12.45166667
1765.5	0.332816667	12.45583333
1766	0.333	12.46
1766.5	0.3331875	12.4625
1767	0.333375	12.465
1767.5	0.3335625	12.4675
1768	0.33375	12.47
1768.5	0.3339375	12.4725
1769	0.334125	12.475
1769.5	0.3343125	12.4775
1770	0.3345	12.48
1770.5	0.33471	12.484
1771	0.33492	12.488
1771.5	0.33513	12.492
1772	0.33534	12.496
1772.5	0.33555	12.5
1773	0.33576	12.504
1773.5	0.33597	12.508
1774	0.33618	12.512
1774.5	0.33639	12.516
1775	0.3366	12.52
1775.5	0.33676	12.524
1776	0.33692	12.528
1776.5	0.33708	12.532
1777	0.33724	12.536
1777.5	0.3374	12.54
1778	0.33756	12.544
1778.5	0.33772	12.548
1779	0.33788	12.552
1779.5	0.33804	12.556
1780	0.3382	12.56
1780.5	0.3384	12.563
1781	0.3386	12.566
1781.5	0.3388	12.569
1782	0.339	12.572
1782.5	0.3392	12.575
1783	0.3394	12.578
1783.5	0.3396	12.581
1784	0.3398	12.584
1784.5	0.34	12.587
1785	0.3402	12.59
1785.5	0.34037	12.594
1786	0.34054	12.598
1786.5	0.34071	12.602
1787	0.34088	12.606
1787.5	0.34105	12.61
1788	0.34122	12.614
1788.5	0.34139	12.618
1789	0.34156	12.622
1789.5	0.34173	12.626
1790	0.3419	12.63
1790.5	0.3421	12.634
1791	0.3423	12.638
1791.5	0.3425	12.642
1792	0.3427	12.646
1792.5	0.3429	12.65
1793	0.3431	12.654
1793.5	0.3433	12.658
1794	0.3435	12.662
1794.5	0.3437	12.666
1795	0.3439	12.67
1795.5	0.34408	12.673
1796	0.34426	12.676
1796.5	0.34444	12.679
1797	0.34462	12.682
1797.5	0.3448	12.685
1798	0.34498	12.688
1798.5	0.34516	12.691
1799	0.34534	12.694
1799.5	0.34552	12.697
1800	0.3457	12.7
1800.5	0.3459	12.704
1801	0.3461	12.708
1801.5	0.3463	12.712
1802	0.3465	12.716
1802.5	0.3467	12.72
1803	0.3469	12.724
1803.5	0.3471	12.728
1804	0.3473	12.732
1804.5	0.3475	12.736
1805	0.3477	12.74
1805.5	0.34787	12.743
1806	0.34804	12.746
1806.5	0.34821	12.749
1807	0.34838	12.752
1807.5	0.34855	12.755
1808	0.34872	12.758
1808.5	0.34889	12.761
1809	0.34906	12.764
1809.5	0.34923	12.767
1810	0.3494	12.77
1810.5	0.34961	12.774
1811	0.34982	12.778
1811.5	0.35003	12.782
1812	0.35024	12.786
1812.5	0.35045	12.79
1813	0.35066	12.794
1813.5	0.35087	12.798
1814	0.35108	12.802
1814.5	0.35129	12.806
1815	0.3515	12.81
1815.5	0.35167	12.813
1816	0.35184	12.816
1816.5	0.35201	12.819
1817	0.35218	12.822
1817.5	0.35235	12.825
1818	0.35252	12.828
1818.5	0.35269	12.831
1819	0.35286	12.834
1819.5	0.35303	12.837
1820	0.3532	12.84
1820.5	0.35342	12.844
1821	0.35364	12.848
1821.5	0.35386	12.852
1822	0.35408	12.856
1822.5	0.3543	12.86
1823	0.35452	12.864
1823.5	0.35474	12.868
1824	0.35496	12.872
1824.5	0.35518	12.876
1825	0.3554	12.88
1825.5	0.35556	12.883
1826	0.35572	12.886
1826.5	0.35588	12.889
1827	0.35604	12.892
1827.5	0.3562	12.895
1828	0.35636	12.898
1828.5	0.35652	12.901
1829	0.35668	12.904
1829.5	0.35684	12.907
1830	0.357	12.91
1830.5	0.357191667	12.91416667
1831	0.357383333	12.91833333
1831.5	0.357575	12.9225
1832	0.357766667	12.92666667
1832.5	0.357958333	12.93083333
1833	0.35815	12.935
1833.5	0.358341667	12.93916667
1834	0.358533333	12.94333333
1834.5	0.358725	12.9475
1835	0.358916667	12.95166667
1835.5	0.359108333	12.95583333
1836	0.3593	12.96
1836.5	0.3595	12.96375
1837	0.3597	12.9675
1837.5	0.3599	12.97125
1838	0.3601	12.975
1838.5	0.3603	12.97875
1839	0.3605	12.9825
1839.5	0.3607	12.98625
1840	0.3609	12.99
1840.5	0.361108333	12.99333333
1841	0.361316667	12.99666667
1841.5	0.361525	13
1842	0.361733333	13.00333333
1842.5	0.361941667	13.00666667
1843	0.36215	13.01
1843.5	0.362358333	13.01333333
1844	0.362566667	13.01666667
1844.5	0.362775	13.02
1845	0.362983333	13.02333333
1845.5	0.363191667	13.02666667
1846	0.3634	13.03
1846.5	0.3635625	13.03375
1847	0.363725	13.0375
1847.5	0.3638875	13.04125
1848	0.36405	13.045
1848.5	0.3642125	13.04875
1849	0.364375	13.0525
1849.5	0.3645375	13.05625
1850	0.3647	13.06
1850.5	0.3649	13.06357143
1851	0.3651	13.06714286
1851.5	0.3653	13.07071429
1852	0.3655	13.07428571
1852.5	0.3657	13.07785714
1853	0.3659	13.08142857
1853.5	0.3661	13.085
1854	0.3663	13.08857143
1854.5	0.3665	13.09214286
1855	0.3667	13.09571429
1855.5	0.3669	13.09928571
1856	0.3671	13.10285714
1856.5	0.3673	13.10642857
1857	0.3675	13.11
1857.5	0.367683333	13.11333333
1858	0.367866667	13.11666667
1858.5	0.36805	13.12
1859	0.368233333	13.12333333
1859.5	0.368416667	13.12666667
1860	0.3686	13.13
1860.5	0.3687875	13.133125
1861	0.368975	13.13625
1861.5	0.3691625	13.139375
1862	0.36935	13.1425
1862.5	0.3695375	13.145625
1863	0.369725	13.14875
1863.5	0.3699125	13.151875
1864	0.3701	13.155
1864.5	0.3702875	13.158125
1865	0.370475	13.16125
1865.5	0.3706625	13.164375
1866	0.37085	13.1675
1866.5	0.3710375	13.170625
1867	0.371225	13.17375
1867.5	0.3714125	13.176875
1868	0.3716	13.18
1868.5	0.371825	13.185
1869	0.37205	13.19
1869.5	0.372275	13.195
1870	0.3725	13.2
1870.5	0.3727125	13.20375
1871	0.372925	13.2075
1871.5	0.3731375	13.21125
1872	0.37335	13.215
1872.5	0.3735625	13.21875
1873	0.373775	13.2225
1873.5	0.3739875	13.22625
1874	0.3742	13.23
1874.5	0.3744125	13.23375
1875	0.374625	13.2375
1875.5	0.3748375	13.24125
1876	0.37505	13.245
1876.5	0.3752625	13.24875
1877	0.375475	13.2525
1877.5	0.3756875	13.25625
1878	0.3759	13.26
1878.5	0.376025	13.2625
1879	0.37615	13.265
1879.5	0.376275	13.2675
1880	0.3764	13.27
1880.5	0.376611111	13.27388889
1881	0.376822222	13.27777778
1881.5	0.377033333	13.28166667
1882	0.377244444	13.28555556
1882.5	0.377455556	13.28944444
1883	0.377666667	13.29333333
1883.5	0.377877778	13.29722222
1884	0.378088889	13.30111111
1884.5	0.3783	13.305
1885	0.378511111	13.30888889
1885.5	0.378722222	13.31277778
1886	0.378933333	13.31666667
1886.5	0.379144444	13.32055556
1887	0.379355556	13.32444444
1887.5	0.379566667	13.32833333
1888	0.379777778	13.33222222
1888.5	0.379988889	13.33611111
1889	0.3802	13.34
1889.5	0.3803	13.34
1890	0.3804	13.34
1890.5	0.3806	13.344
1891	0.3808	13.348
1891.5	0.381	13.352
1892	0.3812	13.356
1892.5	0.3814	13.36
1893	0.3816	13.364
1893.5	0.3818	13.368
1894	0.382	13.372
1894.5	0.3822	13.376
1895	0.3824	13.38
1895.5	0.38259	13.384
1896	0.38278	13.388
1896.5	0.38297	13.392
1897	0.38316	13.396
1897.5	0.38335	13.4
1898	0.38354	13.404
1898.5	0.38373	13.408
1899	0.38392	13.412
1899.5	0.38411	13.416
1900	0.3843	13.42
1900.5	0.384508333	13.42333333
1901	0.384716667	13.42666667
1901.5	0.384925	13.43
1902	0.385133333	13.43333333
1902.5	0.385341667	13.43666667
1903	0.38555	13.44
1903.5	0.385758333	13.44333333
1904	0.385966667	13.44666667
1904.5	0.386175	13.45
1905	0.386383333	13.45333333
1905.5	0.386591667	13.45666667
1906	0.3868	13.46
1906.5	0.3869875	13.46375
1907	0.387175	13.4675
1907.5	0.3873625	13.47125
1908	0.38755	13.475
1908.5	0.3877375	13.47875
1909	0.387925	13.4825
1909.5	0.3881125	13.48625
1910	0.3883	13.49
1910.5	0.388514286	13.49357143
1911	0.388728571	13.49714286
1911.5	0.388942857	13.50071429
1912	0.389157143	13.50428571
1912.5	0.389371429	13.50785714
1913	0.389585714	13.51142857
1913.5	0.3898	13.515
1914	0.390014286	13.51857143
1914.5	0.390228571	13.52214286
1915	0.390442857	13.52571429
1915.5	0.390657143	13.52928571
1916	0.390871429	13.53285714
1916.5	0.391085714	13.53642857
1917	0.3913	13.54
1917.5	0.391466667	13.54333333
1918	0.391633333	13.54666667
1918.5	0.3918	13.55
1919	0.391966667	13.55333333
1919.5	0.392133333	13.55666667
1920	0.3923	13.56
1920.5	0.3925	13.56333333
1921	0.3927	13.56666667
1921.5	0.3929	13.57
1922	0.3931	13.57333333
1922.5	0.3933	13.57666667
1923	0.3935	13.58
1923.5	0.3937	13.58333333
1924	0.3939	13.58666667
1924.5	0.3941	13.59
1925	0.3943	13.59333333
1925.5	0.3945	13.59666667
1926	0.3947	13.6
1926.5	0.3949	13.60333333
1927	0.3951	13.60666667
1927.5	0.3953	13.61
1928	0.3955	13.61333333
1928.5	0.3957	13.61666667
1929	0.3959	13.62
1929.5	0.39615	13.625
1930	0.3964	13.63
1930.5	0.396625	13.63375
1931	0.39685	13.6375
1931.5	0.397075	13.64125
1932	0.3973	13.645
1932.5	0.397525	13.64875
1933	0.39775	13.6525
1933.5	0.397975	13.65625
1934	0.3982	13.66
1934.5	0.398383333	13.66333333
1935	0.398566667	13.66666667
1935.5	0.39875	13.67
1936	0.398933333	13.67333333
1936.5	0.399116667	13.67666667
1937	0.3993	13.68
1937.5	0.399483333	13.68333333
1938	0.399666667	13.68666667
1938.5	0.39985	13.69
1939	0.400033333	13.69333333
1939.5	0.400216667	13.69666667
1940	0.4004	13.7
1940.5	0.400616667	13.70416667
1941	0.400833333	13.70833333
1941.5	0.40105	13.7125
1942	0.401266667	13.71666667
1942.5	0.401483333	13.72083333
1943	0.4017	13.725
1943.5	0.401916667	13.72916667
1944	0.402133333	13.73333333
1944.5	0.40235	13.7375
1945	0.402566667	13.74166667
1945.5	0.402783333	13.74583333
1946	0.403	13.75
1946.5	0.4031875	13.7525
1947	0.403375	13.755
1947.5	0.4035625	13.7575
1948	0.40375	13.76
1948.5	0.4039375	13.7625
1949	0.404125	13.765
1949.5	0.4043125	13.7675
1950	0.4045	13.77
1950.5	0.40470625	13.77375
1951	0.4049125	13.7775
1951.5	0.40511875	13.78125
1952	0.405325	13.785
1952.5	0.40553125	13.78875
1953	0.4057375	13.7925
1953.5	0.40594375	13.79625
1954	0.40615	13.8
1954.5	0.40635625	13.80375
1955	0.4065625	13.8075
1955.5	0.40676875	13.81125
1956	0.406975	13.815
1956.5	0.40718125	13.81875
1957	0.4073875	13.8225
1957.5	0.40759375	13.82625
1958	0.4078	13.83
1958.5	0.408	13.8325
1959	0.4082	13.835
1959.5	0.4084	13.8375
1960	0.4086	13.84
1960.5	0.408805	13.844
1961	0.40901	13.848
1961.5	0.409215	13.852
1962	0.40942	13.856
1962.5	0.409625	13.86
1963	0.40983	13.864
1963.5	0.410035	13.868
1964	0.41024	13.872
1964.5	0.410445	13.876
1965	0.41065	13.88
1965.5	0.410855	13.884
1966	0.41106	13.888
1966.5	0.411265	13.892
1967	0.41147	13.896
1967.5	0.411675	13.9
1968	0.41188	13.904
1968.5	0.412085	13.908
1969	0.41229	13.912
1969.5	0.412495	13.916
1970	0.4127	13.92
1970.5	0.4129	13.92333333
1971	0.4131	13.92666667
1971.5	0.4133	13.93
1972	0.4135	13.93333333
1972.5	0.4137	13.93666667
1973	0.4139	13.94
1973.5	0.4141	13.94333333
1974	0.4143	13.94666667
1974.5	0.4145	13.95
1975	0.4147	13.95333333
1975.5	0.4149	13.95666667
1976	0.4151	13.96
1976.5	0.4153125	13.96375
1977	0.415525	13.9675
1977.5	0.4157375	13.97125
1978	0.41595	13.975
1978.5	0.4161625	13.97875
1979	0.416375	13.9825
1979.5	0.4165875	13.98625
1980	0.4168	13.99
1980.5	0.4170125	13.99375
1981	0.417225	13.9975
1981.5	0.4174375	14.00125
1982	0.41765	14.005
1982.5	0.4178625	14.00875
1983	0.418075	14.0125
1983.5	0.4182875	14.01625
1984	0.4185	14.02
1984.5	0.4187125	14.02375
1985	0.418925	14.0275
1985.5	0.4191375	14.03125
1986	0.41935	14.035
1986.5	0.4195625	14.03875
1987	0.419775	14.0425
1987.5	0.4199875	14.04625
1988	0.4202	14.05
1988.5	0.4204	14.0525
1989	0.4206	14.055
1989.5	0.4208	14.0575
1990	0.421	14.06
1990.5	0.4212125	14.06375
1991	0.421425	14.0675
1991.5	0.4216375	14.07125
1992	0.42185	14.075
1992.5	0.4220625	14.07875
1993	0.422275	14.0825
1993.5	0.4224875	14.08625
1994	0.4227	14.09
1994.5	0.4229	14.09333333
1995	0.4231	14.09666667
1995.5	0.4233	14.1
1996	0.4235	14.10333333
1996.5	0.4237	14.10666667
1997	0.4239	14.11
1997.5	0.4241	14.11333333
1998	0.4243	14.11666667
1998.5	0.4245	14.12
1999	0.4247	14.12333333
1999.5	0.4249	14.12666667
2000	0.4251	14.13
2000.5	0.425333333	14.13416667
2001	0.425566667	14.13833333
2001.5	0.4258	14.1425
2002	0.426033333	14.14666667
2002.5	0.426266667	14.15083333
2003	0.4265	14.155
2003.5	0.426733333	14.15916667
2004	0.426966667	14.16333333
2004.5	0.4272	14.1675
2005	0.427433333	14.17166667
2005.5	0.427666667	14.17583333
2006	0.4279	14.18
2006.5	0.4281	14.18346154
2007	0.4283	14.18692308
2007.5	0.4285	14.19038462
2008	0.4287	14.19384615
2008.5	0.4289	14.19730769
2009	0.4291	14.20076923
2009.5	0.4293	14.20423077
2010	0.4295	14.20769231
2010.5	0.4297	14.21115385
2011	0.4299	14.21461538
2011.5	0.4301	14.21807692
2012	0.4303	14.22153846
2012.5	0.4305	14.225
2013	0.4307	14.22846154
2013.5	0.4309	14.23192308
2014	0.4311	14.23538462
2014.5	0.4313	14.23884615
2015	0.4315	14.24230769
2015.5	0.4317	14.24576923
2016	0.4319	14.24923077
2016.5	0.4321	14.25269231
2017	0.4323	14.25615385
2017.5	0.4325	14.25961538
2018	0.4327	14.26307692
2018.5	0.4329	14.26653846
2019	0.4331	14.27
2019.5	0.433325	14.27333333
2020	0.43355	14.27666667
2020.5	0.433775	14.28
2021	0.434	14.28333333
2021.5	0.434225	14.28666667
2022	0.43445	14.29
2022.5	0.434675	14.29333333
2023	0.4349	14.29666667
2023.5	0.435125	14.3
2024	0.43535	14.30333333
2024.5	0.435575	14.30666667
2025	0.4358	14.31
2025.5	0.436007692	14.31346154
2026	0.436215385	14.31692308
2026.5	0.436423077	14.32038462
2027	0.436630769	14.32384615
2027.5	0.436838462	14.32730769
2028	0.437046154	14.33076923
2028.5	0.437253846	14.33423077
2029	0.437461538	14.33769231
2029.5	0.437669231	14.34115385
2030	0.437876923	14.34461538
2030.5	0.438084615	14.34807692
2031	0.438292308	14.35153846
2031.5	0.4385	14.355
2032	0.438707692	14.35846154
2032.5	0.438915385	14.36192308
2033	0.439123077	14.36538462
2033.5	0.439330769	14.36884615
2034	0.439538462	14.37230769
2034.5	0.439746154	14.37576923
2035	0.439953846	14.37923077
2035.5	0.440161538	14.38269231
2036	0.440369231	14.38615385
2036.5	0.440576923	14.38961538
2037	0.440784615	14.39307692
2037.5	0.440992308	14.39653846
2038	0.4412	14.4
2038.5	0.441433333	14.40416667
2039	0.441666667	14.40833333
2039.5	0.4419	14.4125
2040	0.442133333	14.41666667
2040.5	0.442366667	14.42083333
2041	0.4426	14.425
2041.5	0.442833333	14.42916667
2042	0.443066667	14.43333333
2042.5	0.4433	14.4375
2043	0.443533333	14.44166667
2043.5	0.443766667	14.44583333
2044	0.444	14.45
2044.5	0.444211538	14.45346154
2045	0.444423077	14.45692308
2045.5	0.444634615	14.46038462
2046	0.444846154	14.46384615
2046.5	0.445057692	14.46730769
2047	0.445269231	14.47076923
2047.5	0.445480769	14.47423077
2048	0.445692308	14.47769231
2048.5	0.445903846	14.48115385
2049	0.446115385	14.48461538
2049.5	0.446326923	14.48807692
2050	0.446538462	14.49153846
2050.5	0.44675	14.495
2051	0.446961538	14.49846154
2051.5	0.447173077	14.50192308
2052	0.447384615	14.50538462
2052.5	0.447596154	14.50884615
2053	0.447807692	14.51230769
2053.5	0.448019231	14.51576923
2054	0.448230769	14.51923077
2054.5	0.448442308	14.52269231
2055	0.448653846	14.52615385
2055.5	0.448865385	14.52961538
2056	0.449076923	14.53307692
2056.5	0.449288462	14.53653846
2057	0.4495	14.54
2057.5	0.449707143	14.54357143
2058	0.449914286	14.54714286
2058.5	0.450121429	14.55071429
2059	0.450328571	14.55428571
2059.5	0.450535714	14.55785714
2060	0.450742857	14.56142857
2060.5	0.45095	14.565
2061	0.451157143	14.56857143
2061.5	0.451364286	14.57214286
2062	0.451571429	14.57571429
2062.5	0.451778571	14.57928571
2063	0.451985714	14.58285714
2063.5	0.452192857	14.58642857
2064	0.4524	14.59
2064.5	0.452619231	14.59346154
2065	0.452838462	14.59692308
2065.5	0.453057692	14.60038462
2066	0.453276923	14.60384615
2066.5	0.453496154	14.60730769
2067	0.453715385	14.61076923
2067.5	0.453934615	14.61423077
2068	0.454153846	14.61769231
2068.5	0.454373077	14.62115385
2069	0.454592308	14.62461538
2069.5	0.454811538	14.62807692
2070	0.455030769	14.63153846
2070.5	0.45525	14.635
2071	0.455469231	14.63846154
2071.5	0.455688462	14.64192308
2072	0.455907692	14.64538462
2072.5	0.456126923	14.64884615
2073	0.456346154	14.65230769
2073.5	0.456565385	14.65576923
2074	0.456784615	14.65923077
2074.5	0.457003846	14.66269231
2075	0.457223077	14.66615385
2075.5	0.457442308	14.66961538
2076	0.457661538	14.67307692
2076.5	0.457880769	14.67653846
2077	0.4581	14.68
2077.5	0.458307143	14.68357143
2078	0.458514286	14.68714286
2078.5	0.458721429	14.69071429
2079	0.458928571	14.69428571
2079.5	0.459135714	14.69785714
2080	0.459342857	14.70142857
2080.5	0.45955	14.705
2081	0.459757143	14.70857143
2081.5	0.459964286	14.71214286
2082	0.460171429	14.71571429
2082.5	0.460378571	14.71928571
2083	0.460585714	14.72285714
2083.5	0.460792857	14.72642857
2084	0.461	14.73
2084.5	0.461226923	14.73384615
2085	0.461453846	14.73769231
2085.5	0.461680769	14.74153846
2086	0.461907692	14.74538462
2086.5	0.462134615	14.74923077
2087	0.462361538	14.75307692
2087.5	0.462588462	14.75692308
2088	0.462815385	14.76076923
2088.5	0.463042308	14.76461538
2089	0.463269231	14.76846154
2089.5	0.463496154	14.77230769
2090	0.463723077	14.77615385
2090.5	0.46395	14.78
2091	0.464176923	14.78384615
2091.5	0.464403846	14.78769231
2092	0.464630769	14.79153846
2092.5	0.464857692	14.79538462
2093	0.465084615	14.79923077
2093.5	0.465311538	14.80307692
2094	0.465538462	14.80692308
2094.5	0.465765385	14.81076923
2095	0.465992308	14.81461538
2095.5	0.466219231	14.81846154
2096	0.466446154	14.82230769
2096.5	0.466673077	14.82615385
2097	0.4669	14.83
2097.5	0.467114286	14.83357143
2098	0.467328571	14.83714286
2098.5	0.467542857	14.84071429
2099	0.467757143	14.84428571
2099.5	0.467971429	14.84785714
2100	0.468185714	14.85142857
2100.5	0.4684	14.855
2101	0.468614286	14.85857143
2101.5	0.468828571	14.86214286
2102	0.469042857	14.86571429
2102.5	0.469257143	14.86928571
2103	0.469471429	14.87285714
2103.5	0.469685714	14.87642857
2104	0.4699	14.88
2104.5	0.470117857	14.88321429
2105	0.470335714	14.88642857
2105.5	0.470553571	14.88964286
2106	0.470771429	14.89285714
2106.5	0.470989286	14.89607143
2107	0.471207143	14.89928571
2107.5	0.471425	14.9025
2108	0.471642857	14.90571429
2108.5	0.471860714	14.90892857
2109	0.472078571	14.91214286
2109.5	0.472296429	14.91535714
2110	0.472514286	14.91857143
2110.5	0.472732143	14.92178571
2111	0.47295	14.925
2111.5	0.473167857	14.92821429
2112	0.473385714	14.93142857
2112.5	0.473603571	14.93464286
2113	0.473821429	14.93785714
2113.5	0.474039286	14.94107143
2114	0.474257143	14.94428571
2114.5	0.474475	14.9475
2115	0.474692857	14.95071429
2115.5	0.474910714	14.95392857
2116	0.475128571	14.95714286
2116.5	0.475346429	14.96035714
2117	0.475564286	14.96357143
2117.5	0.475782143	14.96678571
2118	0.476	14.97
2118.5	0.476221429	14.97357143
2119	0.476442857	14.97714286
2119.5	0.476664286	14.98071429
2120	0.476885714	14.98428571
2120.5	0.477107143	14.98785714
2121	0.477328571	14.99142857
2121.5	0.47755	14.995
2122	0.477771429	14.99857143
2122.5	0.477992857	15.00214286
2123	0.478214286	15.00571429
2123.5	0.478435714	15.00928571
2124	0.478657143	15.01285714
2124.5	0.478878571	15.01642857
2125	0.4791	15.02
2125.5	0.479321429	15.02357143
2126	0.479542857	15.02714286
2126.5	0.479764286	15.03071429
2127	0.479985714	15.03428571
2127.5	0.480207143	15.03785714
2128	0.480428571	15.04142857
2128.5	0.48065	15.045
2129	0.480871429	15.04857143
2129.5	0.481092857	15.05214286
2130	0.481314286	15.05571429
2130.5	0.481535714	15.05928571
2131	0.481757143	15.06285714
2131.5	0.481978571	15.06642857
2132	0.4822	15.07
2132.5	0.482421429	15.07357143
2133	0.482642857	15.07714286
2133.5	0.482864286	15.08071429
2134	0.483085714	15.08428571
2134.5	0.483307143	15.08785714
2135	0.483528571	15.09142857
2135.5	0.48375	15.095
2136	0.483971429	15.09857143
2136.5	0.484192857	15.10214286
2137	0.484414286	15.10571429
2137.5	0.484635714	15.10928571
2138	0.484857143	15.11285714
2138.5	0.485078571	15.11642857
2139	0.4853	15.12
2139.5	0.485528571	15.12357143
2140	0.485757143	15.12714286
2140.5	0.485985714	15.13071429
2141	0.486214286	15.13428571
2141.5	0.486442857	15.13785714
2142	0.486671429	15.14142857
2142.5	0.4869	15.145
2143	0.487128571	15.14857143
2143.5	0.487357143	15.15214286
2144	0.487585714	15.15571429
2144.5	0.487814286	15.15928571
2145	0.488042857	15.16285714
2145.5	0.488271429	15.16642857
2146	0.4885	15.17
2146.5	0.488728571	15.17428571
2147	0.488957143	15.17857143
2147.5	0.489185714	15.18285714
2148	0.489414286	15.18714286
2148.5	0.489642857	15.19142857
2149	0.489871429	15.19571429
2149.5	0.4901	15.2
2150	0.490328571	15.20428571
2150.5	0.490557143	15.20857143
2151	0.490785714	15.21285714
2151.5	0.491014286	15.21714286
2152	0.491242857	15.22142857
2152.5	0.491471429	15.22571429
2153	0.4917	15.23
2153.5	0.491932143	15.23357143
2154	0.492164286	15.23714286
2154.5	0.492396429	15.24071429
2155	0.492628571	15.24428571
2155.5	0.492860714	15.24785714
2156	0.493092857	15.25142857
2156.5	0.493325	15.255
2157	0.493557143	15.25857143
2157.5	0.493789286	15.26214286
2158	0.494021429	15.26571429
2158.5	0.494253571	15.26928571
2159	0.494485714	15.27285714
2159.5	0.494717857	15.27642857
2160	0.49495	15.28
2160.5	0.495182143	15.28357143
2161	0.495414286	15.28714286
2161.5	0.495646429	15.29071429
2162	0.495878571	15.29428571
2162.5	0.496110714	15.29785714
2163	0.496342857	15.30142857
2163.5	0.496575	15.305
2164	0.496807143	15.30857143
2164.5	0.497039286	15.31214286
2165	0.497271429	15.31571429
2165.5	0.497503571	15.31928571
2166	0.497735714	15.32285714
2166.5	0.497967857	15.32642857
2167	0.4982	15.33
2167.5	0.49840625	15.333125
2168	0.4986125	15.33625
2168.5	0.49881875	15.339375
2169	0.499025	15.3425
2169.5	0.49923125	15.345625
2170	0.4994375	15.34875
2170.5	0.49964375	15.351875
2171	0.49985	15.355
2171.5	0.50005625	15.358125
2172	0.5002625	15.36125
2172.5	0.50046875	15.364375
2173	0.500675	15.3675
2173.5	0.50088125	15.370625
2174	0.5010875	15.37375
2174.5	0.50129375	15.376875
2175	0.5015	15.38
2175.5	0.501739286	15.38357143
2176	0.501978571	15.38714286
2176.5	0.502217857	15.39071429
2177	0.502457143	15.39428571
2177.5	0.502696429	15.39785714
2178	0.502935714	15.40142857
2178.5	0.503175	15.405
2179	0.503414286	15.40857143
2179.5	0.503653571	15.41214286
2180	0.503892857	15.41571429
2180.5	0.504132143	15.41928571
2181	0.504371429	15.42285714
2181.5	0.504610714	15.42642857
2182	0.50485	15.43
2182.5	0.505089286	15.43357143
2183	0.505328571	15.43714286
2183.5	0.505567857	15.44071429
2184	0.505807143	15.44428571
2184.5	0.506046429	15.44785714
2185	0.506285714	15.45142857
2185.5	0.506525	15.455
2186	0.506764286	15.45857143
2186.5	0.507003571	15.46214286
2187	0.507242857	15.46571429
2187.5	0.507482143	15.46928571
2188	0.507721429	15.47285714
2188.5	0.507960714	15.47642857
2189	0.5082	15.48
2189.5	0.5084125	15.48375
2190	0.508625	15.4875
2190.5	0.5088375	15.49125
2191	0.50905	15.495
2191.5	0.5092625	15.49875
2192	0.509475	15.5025
2192.5	0.5096875	15.50625
2193	0.5099	15.51
2193.5	0.5101125	15.51375
2194	0.510325	15.5175
2194.5	0.5105375	15.52125
2195	0.51075	15.525
2195.5	0.5109625	15.52875
2196	0.511175	15.5325
2196.5	0.5113875	15.53625
2197	0.5116	15.54
2197.5	0.51185	15.54357143
2198	0.5121	15.54714286
2198.5	0.51235	15.55071429
2199	0.5126	15.55428571
2199.5	0.51285	15.55785714
2200	0.5131	15.56142857
2200.5	0.51335	15.565
2201	0.5136	15.56857143
2201.5	0.51385	15.57214286
2202	0.5141	15.57571429
2202.5	0.51435	15.57928571
2203	0.5146	15.58285714
2203.5	0.51485	15.58642857
2204	0.5151	15.59
2204.5	0.515333333	15.59366667
2205	0.515566667	15.59733333
2205.5	0.5158	15.601
2206	0.516033333	15.60466667
2206.5	0.516266667	15.60833333
2207	0.5165	15.612
2207.5	0.516733333	15.61566667
2208	0.516966667	15.61933333
2208.5	0.5172	15.623
2209	0.517433333	15.62666667
2209.5	0.517666667	15.63033333
2210	0.5179	15.634
2210.5	0.518133333	15.63766667
2211	0.518366667	15.64133333
2211.5	0.5186	15.645
2212	0.518833333	15.64866667
2212.5	0.519066667	15.65233333
2213	0.5193	15.656
2213.5	0.519533333	15.65966667
2214	0.519766667	15.66333333
2214.5	0.52	15.667
2215	0.520233333	15.67066667
2215.5	0.520466667	15.67433333
2216	0.5207	15.678
2216.5	0.520933333	15.68166667
2217	0.521166667	15.68533333
2217.5	0.5214	15.689
2218	0.521633333	15.69266667
2218.5	0.521866667	15.69633333
2219	0.5221	15.7
2219.5	0.52231875	15.703125
2220	0.5225375	15.70625
2220.5	0.52275625	15.709375
2221	0.522975	15.7125
2221.5	0.52319375	15.715625
2222	0.5234125	15.71875
2222.5	0.52363125	15.721875
2223	0.52385	15.725
2223.5	0.52406875	15.728125
2224	0.5242875	15.73125
2224.5	0.52450625	15.734375
2225	0.524725	15.7375
2225.5	0.52494375	15.740625
2226	0.5251625	15.74375
2226.5	0.52538125	15.746875
2227	0.5256	15.75
2227.5	0.525825	15.75375
2228	0.52605	15.7575
2228.5	0.526275	15.76125
2229	0.5265	15.765
2229.5	0.526725	15.76875
2230	0.52695	15.7725
2230.5	0.527175	15.77625
2231	0.5274	15.78
2231.5	0.527625	15.78375
2232	0.52785	15.7875
2232.5	0.528075	15.79125
2233	0.5283	15.795
2233.5	0.528525	15.79875
2234	0.52875	15.8025
2234.5	0.528975	15.80625
2235	0.5292	15.81
2235.5	0.529457143	15.81357143
2236	0.529714286	15.81714286
2236.5	0.529971429	15.82071429
2237	0.530228571	15.82428571
2237.5	0.530485714	15.82785714
2238	0.530742857	15.83142857
2238.5	0.531	15.835
2239	0.531257143	15.83857143
2239.5	0.531514286	15.84214286
2240	0.531771429	15.84571429
2240.5	0.532028571	15.84928571
2241	0.532285714	15.85285714
2241.5	0.532542857	15.85642857
2242	0.5328	15.86
2242.5	0.53303125	15.8634375
2243	0.5332625	15.866875
2243.5	0.53349375	15.8703125
2244	0.533725	15.87375
2244.5	0.53395625	15.8771875
2245	0.5341875	15.880625
2245.5	0.53441875	15.8840625
2246	0.53465	15.8875
2246.5	0.53488125	15.8909375
2247	0.5351125	15.894375
2247.5	0.53534375	15.8978125
2248	0.535575	15.90125
2248.5	0.53580625	15.9046875
2249	0.5360375	15.908125
2249.5	0.53626875	15.9115625
2250	0.5365	15.915
2250.5	0.53673125	15.9184375
2251	0.5369625	15.921875
2251.5	0.53719375	15.9253125
2252	0.537425	15.92875
2252.5	0.53765625	15.9321875
2253	0.5378875	15.935625
2253.5	0.53811875	15.9390625
2254	0.53835	15.9425
2254.5	0.53858125	15.9459375
2255	0.5388125	15.949375
2255.5	0.53904375	15.9528125
2256	0.539275	15.95625
2256.5	0.53950625	15.9596875
2257	0.5397375	15.963125
2257.5	0.53996875	15.9665625
2258	0.5402	15.97
2258.5	0.54043125	15.97375
2259	0.5406625	15.9775
2259.5	0.54089375	15.98125
2260	0.541125	15.985
2260.5	0.54135625	15.98875
2261	0.5415875	15.9925
2261.5	0.54181875	15.99625
2262	0.54205	16
2262.5	0.54228125	16.00375
2263	0.5425125	16.0075
2263.5	0.54274375	16.01125
2264	0.542975	16.015
2264.5	0.54320625	16.01875
2265	0.5434375	16.0225
2265.5	0.54366875	16.02625
2266	0.5439	16.03
2266.5	0.5441375	16.03375
2267	0.544375	16.0375
2267.5	0.5446125	16.04125
2268	0.54485	16.045
2268.5	0.5450875	16.04875
2269	0.545325	16.0525
2269.5	0.5455625	16.05625
2270	0.5458	16.06
2270.5	0.5460375	16.06375
2271	0.546275	16.0675
2271.5	0.5465125	16.07125
2272	0.54675	16.075
2272.5	0.5469875	16.07875
2273	0.547225	16.0825
2273.5	0.5474625	16.08625
2274	0.5477	16.09
2274.5	0.5479375	16.093125
2275	0.548175	16.09625
2275.5	0.5484125	16.099375
2276	0.54865	16.1025
2276.5	0.5488875	16.105625
2277	0.549125	16.10875
2277.5	0.5493625	16.111875
2278	0.5496	16.115
2278.5	0.5498375	16.118125
2279	0.550075	16.12125
2279.5	0.5503125	16.124375
2280	0.55055	16.1275
2280.5	0.5507875	16.130625
2281	0.551025	16.13375
2281.5	0.5512625	16.136875
2282	0.5515	16.14
2282.5	0.55174375	16.14375
2283	0.5519875	16.1475
2283.5	0.55223125	16.15125
2284	0.552475	16.155
2284.5	0.55271875	16.15875
2285	0.5529625	16.1625
2285.5	0.55320625	16.16625
2286	0.55345	16.17
2286.5	0.55369375	16.17375
2287	0.5539375	16.1775
2287.5	0.55418125	16.18125
2288	0.554425	16.185
2288.5	0.55466875	16.18875
2289	0.5549125	16.1925
2289.5	0.55515625	16.19625
2290	0.5554	16.2
2290.5	0.55564375	16.20375
2291	0.5558875	16.2075
2291.5	0.55613125	16.21125
2292	0.556375	16.215
2292.5	0.55661875	16.21875
2293	0.5568625	16.2225
2293.5	0.55710625	16.22625
2294	0.55735	16.23
2294.5	0.55759375	16.23375
2295	0.5578375	16.2375
2295.5	0.55808125	16.24125
2296	0.558325	16.245
2296.5	0.55856875	16.24875
2297	0.5588125	16.2525
2297.5	0.55905625	16.25625
2298	0.5593	16.26
2298.5	0.55954375	16.26375
2299	0.5597875	16.2675
2299.5	0.56003125	16.27125
2300	0.560275	16.275
2300.5	0.56051875	16.27875
2301	0.5607625	16.2825
2301.5	0.56100625	16.28625
2302	0.56125	16.29
2302.5	0.56149375	16.29375
2303	0.5617375	16.2975
2303.5	0.56198125	16.30125
2304	0.562225	16.305
2304.5	0.56246875	16.30875
2305	0.5627125	16.3125
2305.5	0.56295625	16.31625
2306	0.5632	16.32
2306.5	0.56345	16.32375
2307	0.5637	16.3275
2307.5	0.56395	16.33125
2308	0.5642	16.335
2308.5	0.56445	16.33875
2309	0.5647	16.3425
2309.5	0.56495	16.34625
2310	0.5652	16.35
2310.5	0.56545	16.35375
2311	0.5657	16.3575
2311.5	0.56595	16.36125
2312	0.5662	16.365
2312.5	0.56645	16.36875
2313	0.5667	16.3725
2313.5	0.56695	16.37625
2314	0.5672	16.38
2314.5	0.567422222	16.38333333
2315	0.567644444	16.38666667
2315.5	0.567866667	16.39
2316	0.568088889	16.39333333
2316.5	0.568311111	16.39666667
2317	0.568533333	16.4
2317.5	0.568755556	16.40333333
2318	0.568977778	16.40666667
2318.5	0.5692	16.41
2319	0.569422222	16.41333333
2319.5	0.569644444	16.41666667
2320	0.569866667	16.42
2320.5	0.570088889	16.42333333
2321	0.570311111	16.42666667
2321.5	0.570533333	16.43
2322	0.570755556	16.43333333
2322.5	0.570977778	16.43666667
2323	0.5712	16.44
2323.5	0.57145625	16.44375
2324	0.5717125	16.4475
2324.5	0.57196875	16.45125
2325	0.572225	16.455
2325.5	0.57248125	16.45875
2326	0.5727375	16.4625
2326.5	0.57299375	16.46625
2327	0.57325	16.47
2327.5	0.57350625	16.47375
2328	0.5737625	16.4775
2328.5	0.57401875	16.48125
2329	0.574275	16.485
2329.5	0.57453125	16.48875
2330	0.5747875	16.4925
2330.5	0.57504375	16.49625
2331	0.5753	16.5
2331.5	0.57555625	16.50375
2332	0.5758125	16.5075
2332.5	0.57606875	16.51125
2333	0.576325	16.515
2333.5	0.57658125	16.51875
2334	0.5768375	16.5225
2334.5	0.57709375	16.52625
2335	0.57735	16.53
2335.5	0.57760625	16.53375
2336	0.5778625	16.5375
2336.5	0.57811875	16.54125
2337	0.578375	16.545
2337.5	0.57863125	16.54875
2338	0.5788875	16.5525
2338.5	0.57914375	16.55625
2339	0.5794	16.56
2339.5	0.579627778	16.56333333
2340	0.579855556	16.56666667
2340.5	0.580083333	16.57
2341	0.580311111	16.57333333
2341.5	0.580538889	16.57666667
2342	0.580766667	16.58
2342.5	0.580994444	16.58333333
2343	0.581222222	16.58666667
2343.5	0.58145	16.59
2344	0.581677778	16.59333333
2344.5	0.581905556	16.59666667
2345	0.582133333	16.6
2345.5	0.582361111	16.60333333
2346	0.582588889	16.60666667
2346.5	0.582816667	16.61
2347	0.583044444	16.61333333
2347.5	0.583272222	16.61666667
2348	0.5835	16.62
2348.5	0.5837625	16.62375
2349	0.584025	16.6275
2349.5	0.5842875	16.63125
2350	0.58455	16.635
2350.5	0.5848125	16.63875
2351	0.585075	16.6425
2351.5	0.5853375	16.64625
2352	0.5856	16.65
2352.5	0.5858625	16.65375
2353	0.586125	16.6575
2353.5	0.5863875	16.66125
2354	0.58665	16.665
2354.5	0.5869125	16.66875
2355	0.587175	16.6725
2355.5	0.5874375	16.67625
2356	0.5877	16.68
2356.5	0.587938889	16.68333333
2357	0.588177778	16.68666667
2357.5	0.588416667	16.69
2358	0.588655556	16.69333333
2358.5	0.588894444	16.69666667
2359	0.589133333	16.7
2359.5	0.589372222	16.70333333
2360	0.589611111	16.70666667
2360.5	0.58985	16.71
2361	0.590088889	16.71333333
2361.5	0.590327778	16.71666667
2362	0.590566667	16.72
2362.5	0.590805556	16.72333333
2363	0.591044444	16.72666667
2363.5	0.591283333	16.73
2364	0.591522222	16.73333333
2364.5	0.591761111	16.73666667
2365	0.592	16.74
2365.5	0.592238889	16.74333333
2366	0.592477778	16.74666667
2366.5	0.592716667	16.75
2367	0.592955556	16.75333333
2367.5	0.593194444	16.75666667
2368	0.593433333	16.76
2368.5	0.593672222	16.76333333
2369	0.593911111	16.76666667
2369.5	0.59415	16.77
2370	0.594388889	16.77333333
2370.5	0.594627778	16.77666667
2371	0.594866667	16.78
2371.5	0.595105556	16.78333333
2372	0.595344444	16.78666667
2372.5	0.595583333	16.79
2373	0.595822222	16.79333333
2373.5	0.596061111	16.79666667
2374	0.5963	16.8
2374.5	0.59656875	16.80375
2375	0.5968375	16.8075
2375.5	0.59710625	16.81125
2376	0.597375	16.815
2376.5	0.59764375	16.81875
2377	0.5979125	16.8225
2377.5	0.59818125	16.82625
2378	0.59845	16.83
2378.5	0.59871875	16.83375
2379	0.5989875	16.8375
2379.5	0.59925625	16.84125
2380	0.599525	16.845
2380.5	0.59979375	16.84875
2381	0.6000625	16.8525
2381.5	0.60033125	16.85625
2382	0.6006	16.86
2382.5	0.600844444	16.86333333
2383	0.601088889	16.86666667
2383.5	0.601333333	16.87
2384	0.601577778	16.87333333
2384.5	0.601822222	16.87666667
2385	0.602066667	16.88
2385.5	0.602311111	16.88333333
2386	0.602555556	16.88666667
2386.5	0.6028	16.89
2387	0.603044444	16.89333333
2387.5	0.603288889	16.89666667
2388	0.603533333	16.9
2388.5	0.603777778	16.90333333
2389	0.604022222	16.90666667
2389.5	0.604266667	16.91
2390	0.604511111	16.91333333
2390.5	0.604755556	16.91666667
2391	0.605	16.92
2391.5	0.605247222	16.92361111
2392	0.605494444	16.92722222
2392.5	0.605741667	16.93083333
2393	0.605988889	16.93444444
2393.5	0.606236111	16.93805556
2394	0.606483333	16.94166667
2394.5	0.606730556	16.94527778
2395	0.606977778	16.94888889
2395.5	0.607225	16.9525
2396	0.607472222	16.95611111
2396.5	0.607719444	16.95972222
2397	0.607966667	16.96333333
2397.5	0.608213889	16.96694444
2398	0.608461111	16.97055556
2398.5	0.608708333	16.97416667
2399	0.608955556	16.97777778
2399.5	0.609202778	16.98138889
2400	0.60945	16.985
2400.5	0.609697222	16.98861111
2401	0.609944444	16.99222222
2401.5	0.610191667	16.99583333
2402	0.610438889	16.99944444
2402.5	0.610686111	17.00305556
2403	0.610933333	17.00666667
2403.5	0.611180556	17.01027778
2404	0.611427778	17.01388889
2404.5	0.611675	17.0175
2405	0.611922222	17.02111111
2405.5	0.612169444	17.02472222
2406	0.612416667	17.02833333
2406.5	0.612663889	17.03194444
2407	0.612911111	17.03555556
2407.5	0.613158333	17.03916667
2408	0.613405556	17.04277778
2408.5	0.613652778	17.04638889
2409	0.6139	17.05
2409.5	0.614155556	17.05388889
2410	0.614411111	17.05777778
2410.5	0.614666667	17.06166667
2411	0.614922222	17.06555556
2411.5	0.615177778	17.06944444
2412	0.615433333	17.07333333
2412.5	0.615688889	17.07722222
2413	0.615944444	17.08111111
2413.5	0.6162	17.085
2414	0.616455556	17.08888889
2414.5	0.616711111	17.09277778
2415	0.616966667	17.09666667
2415.5	0.617222222	17.10055556
2416	0.617477778	17.10444444
2416.5	0.617733333	17.10833333
2417	0.617988889	17.11222222
2417.5	0.618244444	17.11611111
2418	0.6185	17.12
2418.5	0.618755556	17.12333333
2419	0.619011111	17.12666667
2419.5	0.619266667	17.13
2420	0.619522222	17.13333333
2420.5	0.619777778	17.13666667
2421	0.620033333	17.14
2421.5	0.620288889	17.14333333
2422	0.620544444	17.14666667
2422.5	0.6208	17.15
2423	0.621055556	17.15333333
2423.5	0.621311111	17.15666667
2424	0.621566667	17.16
2424.5	0.621822222	17.16333333
2425	0.622077778	17.16666667
2425.5	0.622333333	17.17
2426	0.622588889	17.17333333
2426.5	0.622844444	17.17666667
2427	0.6231	17.18
2427.5	0.623355556	17.18333333
2428	0.623611111	17.18666667
2428.5	0.623866667	17.19
2429	0.624122222	17.19333333
2429.5	0.624377778	17.19666667
2430	0.624633333	17.2
2430.5	0.624888889	17.20333333
2431	0.625144444	17.20666667
2431.5	0.6254	17.21
2432	0.625655556	17.21333333
2432.5	0.625911111	17.21666667
2433	0.626166667	17.22
2433.5	0.626422222	17.22333333
2434	0.626677778	17.22666667
2434.5	0.626933333	17.23
2435	0.627188889	17.23333333
2435.5	0.627444444	17.23666667
2436	0.6277	17.24
2436.5	0.627961111	17.24388889
2437	0.628222222	17.24777778
2437.5	0.628483333	17.25166667
2438	0.628744444	17.25555556
2438.5	0.629005556	17.25944444
2439	0.629266667	17.26333333
2439.5	0.629527778	17.26722222
2440	0.629788889	17.27111111
2440.5	0.63005	17.275
2441	0.630311111	17.27888889
2441.5	0.630572222	17.28277778
2442	0.630833333	17.28666667
2442.5	0.631094444	17.29055556
2443	0.631355556	17.29444444
2443.5	0.631616667	17.29833333
2444	0.631877778	17.30222222
2444.5	0.632138889	17.30611111
2445	0.6324	17.31
2445.5	0.63264	17.3135
2446	0.63288	17.317
2446.5	0.63312	17.3205
2447	0.63336	17.324
2447.5	0.6336	17.3275
2448	0.63384	17.331
2448.5	0.63408	17.3345
2449	0.63432	17.338
2449.5	0.63456	17.3415
2450	0.6348	17.345
2450.5	0.63504	17.3485
2451	0.63528	17.352
2451.5	0.63552	17.3555
2452	0.63576	17.359
2452.5	0.636	17.3625
2453	0.63624	17.366
2453.5	0.63648	17.3695
2454	0.63672	17.373
2454.5	0.63696	17.3765
2455	0.6372	17.38
2455.5	0.637466667	17.38333333
2456	0.637733333	17.38666667
2456.5	0.638	17.39
2457	0.638266667	17.39333333
2457.5	0.638533333	17.39666667
2458	0.6388	17.4
2458.5	0.639066667	17.40333333
2459	0.639333333	17.40666667
2459.5	0.6396	17.41
2460	0.639866667	17.41333333
2460.5	0.640133333	17.41666667
2461	0.6404	17.42
2461.5	0.640666667	17.42333333
2462	0.640933333	17.42666667
2462.5	0.6412	17.43
2463	0.641466667	17.43333333
2463.5	0.641733333	17.43666667
2464	0.642	17.44
2464.5	0.642266667	17.44388889
2465	0.642533333	17.44777778
2465.5	0.6428	17.45166667
2466	0.643066667	17.45555556
2466.5	0.643333333	17.45944444
2467	0.6436	17.46333333
2467.5	0.643866667	17.46722222
2468	0.644133333	17.47111111
2468.5	0.6444	17.475
2469	0.644666667	17.47888889
2469.5	0.644933333	17.48277778
2470	0.6452	17.48666667
2470.5	0.645466667	17.49055556
2471	0.645733333	17.49444444
2471.5	0.646	17.49833333
2472	0.646266667	17.50222222
2472.5	0.646533333	17.50611111
2473	0.6468	17.51
2473.5	0.647045	17.5135
2474	0.64729	17.517
2474.5	0.647535	17.5205
2475	0.64778	17.524
2475.5	0.648025	17.5275
2476	0.64827	17.531
2476.5	0.648515	17.5345
2477	0.64876	17.538
2477.5	0.649005	17.5415
2478	0.64925	17.545
2478.5	0.649495	17.5485
2479	0.64974	17.552
2479.5	0.649985	17.5555
2480	0.65023	17.559
2480.5	0.650475	17.5625
2481	0.65072	17.566
2481.5	0.650965	17.5695
2482	0.65121	17.573
2482.5	0.651455	17.5765
2483	0.6517	17.58
2483.5	0.651977778	17.58388889
2484	0.652255556	17.58777778
2484.5	0.652533333	17.59166667
2485	0.652811111	17.59555556
2485.5	0.653088889	17.59944444
2486	0.653366667	17.60333333
2486.5	0.653644444	17.60722222
2487	0.653922222	17.61111111
2487.5	0.6542	17.615
2488	0.654477778	17.61888889
2488.5	0.654755556	17.62277778
2489	0.655033333	17.62666667
2489.5	0.655311111	17.63055556
2490	0.655588889	17.63444444
2490.5	0.655866667	17.63833333
2491	0.656144444	17.64222222
2491.5	0.656422222	17.64611111
2492	0.6567	17.65
2492.5	0.65695	17.653
2493	0.6572	17.656
2493.5	0.65745	17.659
2494	0.6577	17.662
2494.5	0.65795	17.665
2495	0.6582	17.668
2495.5	0.65845	17.671
2496	0.6587	17.674
2496.5	0.65895	17.677
2497	0.6592	17.68
2497.5	0.65945	17.683
2498	0.6597	17.686
2498.5	0.65995	17.689
2499	0.6602	17.692
2499.5	0.66045	17.695
